Index	Ts	t	Weight	Tr
[#]	[°C]	[s]	[mg]	[°C]
681	1.30394e+02	6.81000e+02	3.02487	130.5
682	1.30910e+02	6.82000e+02	3.02484	131.0
683	1.31434e+02	6.83000e+02	3.02481	131.5
684	1.31941e+02	6.84000e+02	3.02477	132.0
685	1.32443e+02	6.85000e+02	3.02474	132.5
686	1.32961e+02	6.86000e+02	3.02472	133.0
687	1.33465e+02	6.87000e+02	3.0247	133.5
688	1.33966e+02	6.88000e+02	3.02471	134.0
689	1.34471e+02	6.89000e+02	3.0247	134.5
690	1.34985e+02	6.90000e+02	3.0247	135.0
691	1.35477e+02	6.91000e+02	3.0247	135.5
692	1.35995e+02	6.92000e+02	3.02472	136.0
693	1.36503e+02	6.93000e+02	3.02474	136.5
694	1.36999e+02	6.94000e+02	3.02475	137.0
695	1.37514e+02	6.95000e+02	3.02477	137.5
696	1.38023e+02	6.96000e+02	3.02479	138.0
697	1.38529e+02	6.97000e+02	3.02479	138.5
698	1.39048e+02	6.98000e+02	3.02478	139.0
699	1.39538e+02	6.99000e+02	3.02477	139.5
700	1.40046e+02	7.00000e+02	3.02472	140.0
701	1.40558e+02	7.01000e+02	3.02468	140.5
702	1.41072e+02	7.02000e+02	3.02463	141.0
703	1.41574e+02	7.03000e+02	3.02458	141.5
704	1.42081e+02	7.04000e+02	3.0245	142.0
705	1.42597e+02	7.05000e+02	3.02443	142.5
706	1.43101e+02	7.06000e+02	3.02436	143.0
707	1.43594e+02	7.07000e+02	3.02429	143.5
708	1.44110e+02	7.08000e+02	3.02421	144.0
709	1.44618e+02	7.09000e+02	3.02416	144.5
710	1.45129e+02	7.10000e+02	3.02411	145.0
711	1.45629e+02	7.11000e+02	3.02409	145.5
712	1.46147e+02	7.12000e+02	3.02411	146.0
713	1.46659e+02	7.13000e+02	3.02413	146.5
714	1.47152e+02	7.14000e+02	3.02416	147.0
715	1.47674e+02	7.15000e+02	3.0242	147.5
716	1.48170e+02	7.16000e+02	3.02429	148.0
717	1.48681e+02	7.17000e+02	3.02435	148.5
718	1.49192e+02	7.18000e+02	3.02439	149.0
719	1.49697e+02	7.19000e+02	3.02444	149.5
720	1.50204e+02	7.20000e+02	3.02446	150.0
721	1.50712e+02	7.21000e+02	3.02447	150.5
722	1.51227e+02	7.22000e+02	3.02446	151.0
723	1.51742e+02	7.23000e+02	3.02443	151.5
724	1.52236e+02	7.24000e+02	3.02435	152.0
725	1.52743e+02	7.25000e+02	3.02428	152.5
726	1.53247e+02	7.26000e+02	3.02421	153.0
727	1.53759e+02	7.27000e+02	3.02414	153.5
728	1.54271e+02	7.28000e+02	3.02405	154.0
729	1.54774e+02	7.29000e+02	3.02397	154.5
730	1.55285e+02	7.30000e+02	3.02391	155.0
731	1.55787e+02	7.31000e+02	3.02384	155.5
732	1.56296e+02	7.32000e+02	3.0238	156.0
733	1.56820e+02	7.33000e+02	3.02375	156.5
734	1.57319e+02	7.34000e+02	3.02369	157.0
735	1.57825e+02	7.35000e+02	3.02364	157.5
736	1.58341e+02	7.36000e+02	3.02359	158.0
737	1.58861e+02	7.37000e+02	3.02356	158.5
738	1.59370e+02	7.38000e+02	3.02352	159.0
739	1.59869e+02	7.39000e+02	3.02349	159.5
740	1.60369e+02	7.40000e+02	3.02347	160.0
741	1.60884e+02	7.41000e+02	3.02343	160.5
742	1.61384e+02	7.42000e+02	3.02339	161.0
743	1.61898e+02	7.43000e+02	3.02335	161.5
744	1.62404e+02	7.44000e+02	3.0233	162.0
745	1.62916e+02	7.45000e+02	3.02326	162.5
746	1.63424e+02	7.46000e+02	3.02322	163.0
747	1.63940e+02	7.47000e+02	3.02317	163.5
748	1.64451e+02	7.48000e+02	3.02314	164.0
749	1.64954e+02	7.49000e+02	3.0231	164.5
750	1.65465e+02	7.50000e+02	3.02306	165.0
751	1.65956e+02	7.51000e+02	3.02302	165.5
752	1.66471e+02	7.52000e+02	3.023	166.0
753	1.66987e+02	7.53000e+02	3.02297	166.5
754	1.67501e+02	7.54000e+02	3.02294	167.0
755	1.68005e+02	7.55000e+02	3.02291	167.5
756	1.68520e+02	7.56000e+02	3.02288	168.0
757	1.69019e+02	7.57000e+02	3.02284	168.5
758	1.69528e+02	7.58000e+02	3.0228	169.0
759	1.70037e+02	7.59000e+02	3.02276	169.5
760	1.70545e+02	7.60000e+02	3.02271	170.0
761	1.71053e+02	7.61000e+02	3.02267	170.5
762	1.71554e+02	7.62000e+02	3.02262	171.0
763	1.72071e+02	7.63000e+02	3.02258	171.5
764	1.72593e+02	7.64000e+02	3.02253	172.0
765	1.73086e+02	7.65000e+02	3.02248	172.5
766	1.73606e+02	7.66000e+02	3.02243	173.0
767	1.74126e+02	7.67000e+02	3.02237	173.5
768	1.74633e+02	7.68000e+02	3.0223	174.0
769	1.75138e+02	7.69000e+02	3.02224	174.5
770	1.75648e+02	7.70000e+02	3.02218	175.0
771	1.76160e+02	7.71000e+02	3.02211	175.5
772	1.76665e+02	7.72000e+02	3.02204	176.0
773	1.77184e+02	7.73000e+02	3.02197	176.5
774	1.77699e+02	7.74000e+02	3.02189	177.0
775	1.78215e+02	7.75000e+02	3.02181	177.5
776	1.78712e+02	7.76000e+02	3.02172	178.0
777	1.79219e+02	7.77000e+02	3.02165	178.5
778	1.79732e+02	7.78000e+02	3.02157	179.0
779	1.80245e+02	7.79000e+02	3.0215	179.5
780	1.80769e+02	7.80000e+02	3.02144	180.0
781	1.81266e+02	7.81000e+02	3.02137	180.5
782	1.81766e+02	7.82000e+02	3.0213	181.0
783	1.82290e+02	7.83000e+02	3.02122	181.5
784	1.82794e+02	7.84000e+02	3.02114	182.0
785	1.83306e+02	7.85000e+02	3.02106	182.5
786	1.83819e+02	7.86000e+02	3.02098	183.0
787	1.84323e+02	7.87000e+02	3.02091	183.5
788	1.84838e+02	7.88000e+02	3.02083	184.0
789	1.85344e+02	7.89000e+02	3.02076	184.5
790	1.85849e+02	7.90000e+02	3.02068	185.0
791	1.86360e+02	7.91000e+02	3.02061	185.5
792	1.86862e+02	7.92000e+02	3.02055	186.0
793	1.87388e+02	7.93000e+02	3.02048	186.5
794	1.87904e+02	7.94000e+02	3.02042	187.0
795	1.88413e+02	7.95000e+02	3.02036	187.5
796	1.88925e+02	7.96000e+02	3.02029	188.0
797	1.89435e+02	7.97000e+02	3.02021	188.5
798	1.89939e+02	7.98000e+02	3.02013	189.0
799	1.90455e+02	7.99000e+02	3.02004	189.5
800	1.90947e+02	8.00000e+02	3.01991	190.0
801	1.91469e+02	8.01000e+02	3.01979	190.5
802	1.91976e+02	8.02000e+02	3.01966	191.0
803	1.92488e+02	8.03000e+02	3.01952	191.5
804	1.93003e+02	8.04000e+02	3.01936	192.0
805	1.93514e+02	8.05000e+02	3.01921	192.5
806	1.94029e+02	8.06000e+02	3.01906	193.0
807	1.94531e+02	8.07000e+02	3.01891	193.5
808	1.95047e+02	8.08000e+02	3.01877	194.0
809	1.95556e+02	8.09000e+02	3.01862	194.5
810	1.96069e+02	8.10000e+02	3.01847	195.0
811	1.96581e+02	8.11000e+02	3.01832	195.5
812	1.97097e+02	8.12000e+02	3.01816	196.0
813	1.97615e+02	8.13000e+02	3.018	196.5
814	1.98126e+02	8.14000e+02	3.01782	197.0
815	1.98625e+02	8.15000e+02	3.01764	197.5
816	1.99140e+02	8.16000e+02	3.01742	198.0
817	1.99641e+02	8.17000e+02	3.0172	198.5
818	2.00168e+02	8.18000e+02	3.01698	199.0
819	2.00679e+02	8.19000e+02	3.01675	199.5
820	2.01177e+02	8.20000e+02	3.01649	200.0
821	2.01688e+02	8.21000e+02	3.01625	200.5
822	2.02196e+02	8.22000e+02	3.016	201.0
823	2.02715e+02	8.23000e+02	3.01574	201.5
824	2.03230e+02	8.24000e+02	3.01548	202.0
825	2.03737e+02	8.25000e+02	3.01521	202.5
826	2.04254e+02	8.26000e+02	3.01494	203.0
827	2.04760e+02	8.27000e+02	3.01468	203.5
828	2.05280e+02	8.28000e+02	3.01439	204.0
829	2.05781e+02	8.29000e+02	3.01411	204.5
830	2.06300e+02	8.30000e+02	3.01383	205.0
831	2.06820e+02	8.31000e+02	3.01353	205.5
832	2.07331e+02	8.32000e+02	3.01322	206.0
833	2.07830e+02	8.33000e+02	3.01291	206.5
834	2.08342e+02	8.34000e+02	3.01259	207.0
835	2.08857e+02	8.35000e+02	3.01228	207.5
836	2.09377e+02	8.36000e+02	3.01194	208.0
837	2.09886e+02	8.37000e+02	3.01162	208.5
838	2.10396e+02	8.38000e+02	3.01129	209.0
839	2.10904e+02	8.39000e+02	3.01096	209.5
840	2.11420e+02	8.40000e+02	3.01062	210.0
841	2.11930e+02	8.41000e+02	3.01028	210.5
842	2.12455e+02	8.42000e+02	3.00993	211.0
843	2.12954e+02	8.43000e+02	3.00958	211.5
844	2.13475e+02	8.44000e+02	3.00921	212.0
845	2.13989e+02	8.45000e+02	3.00885	212.5
846	2.14502e+02	8.46000e+02	3.0085	213.0
847	2.15020e+02	8.47000e+02	3.00816	213.5
848	2.15538e+02	8.48000e+02	3.00782	214.0
849	2.16046e+02	8.49000e+02	3.00747	214.5
850	2.16553e+02	8.50000e+02	3.00712	215.0
851	2.17059e+02	8.51000e+02	3.00677	215.5
852	2.17575e+02	8.52000e+02	3.00641	216.0
853	2.18089e+02	8.53000e+02	3.00605	216.5
854	2.18608e+02	8.54000e+02	3.00569	217.0
855	2.19119e+02	8.55000e+02	3.00532	217.5
856	2.19633e+02	8.56000e+02	3.00495	218.0
857	2.20140e+02	8.57000e+02	3.00458	218.5
858	2.20634e+02	8.58000e+02	3.00421	219.0
859	2.21152e+02	8.59000e+02	3.00384	219.5
860	2.21658e+02	8.60000e+02	3.00349	220.0
861	2.22180e+02	8.61000e+02	3.00315	220.5
862	2.22695e+02	8.62000e+02	3.00282	221.0
863	2.23210e+02	8.63000e+02	3.00249	221.5
864	2.23708e+02	8.64000e+02	3.00219	222.0
865	2.24223e+02	8.65000e+02	3.00186	222.5
866	2.24744e+02	8.66000e+02	3.00153	223.0
867	2.25262e+02	8.67000e+02	3.00119	223.5
868	2.25763e+02	8.68000e+02	3.00083	224.0
869	2.26272e+02	8.69000e+02	3.00048	224.5
870	2.26787e+02	8.70000e+02	3.00013	225.0
871	2.27300e+02	8.71000e+02	2.99977	225.5
872	2.27805e+02	8.72000e+02	2.99941	226.0
873	2.28312e+02	8.73000e+02	2.99905	226.5
874	2.28824e+02	8.74000e+02	2.9987	227.0
875	2.29345e+02	8.75000e+02	2.99835	227.5
876	2.29856e+02	8.76000e+02	2.99801	228.0
877	2.30358e+02	8.77000e+02	2.99766	228.5
878	2.30873e+02	8.78000e+02	2.99731	229.0
879	2.31382e+02	8.79000e+02	2.99696	229.5
880	2.31895e+02	8.80000e+02	2.9966	230.0
881	2.32415e+02	8.81000e+02	2.99624	230.5
882	2.32918e+02	8.82000e+02	2.99587	231.0
883	2.33429e+02	8.83000e+02	2.99549	231.5
884	2.33942e+02	8.84000e+02	2.99509	232.0
885	2.34453e+02	8.85000e+02	2.9947	232.5
886	2.34963e+02	8.86000e+02	2.99432	233.0
887	2.35489e+02	8.87000e+02	2.99393	233.5
888	2.36006e+02	8.88000e+02	2.99355	234.0
889	2.36507e+02	8.89000e+02	2.99317	234.5
890	2.37020e+02	8.90000e+02	2.99279	235.0
891	2.37530e+02	8.91000e+02	2.99241	235.5
892	2.38045e+02	8.92000e+02	2.99204	236.0
893	2.38553e+02	8.93000e+02	2.99166	236.5
894	2.39066e+02	8.94000e+02	2.99128	237.0
895	2.39565e+02	8.95000e+02	2.9909	237.5
896	2.40084e+02	8.96000e+02	2.9905	238.0
897	2.40596e+02	8.97000e+02	2.9901	238.5
898	2.41113e+02	8.98000e+02	2.9897	239.0
899	2.41621e+02	8.99000e+02	2.98929	239.5
900	2.42143e+02	9.00000e+02	2.98887	240.0
901	2.42658e+02	9.01000e+02	2.98845	240.5
902	2.43171e+02	9.02000e+02	2.98802	241.0
903	2.43695e+02	9.03000e+02	2.9876	241.5
904	2.44205e+02	9.04000e+02	2.98717	242.0
905	2.44724e+02	9.05000e+02	2.98675	242.5
906	2.45223e+02	9.06000e+02	2.98633	243.0
907	2.45744e+02	9.07000e+02	2.98591	243.5
908	2.46274e+02	9.08000e+02	2.9855	244.0
909	2.46800e+02	9.09000e+02	2.98507	244.5
910	2.47319e+02	9.10000e+02	2.98465	245.0
911	2.47831e+02	9.11000e+02	2.98422	245.5
912	2.48334e+02	9.12000e+02	2.98379	246.0
913	2.48901e+02	9.13000e+02	2.98337	246.5
914	2.49436e+02	9.14000e+02	2.98294	247.0
915	2.49958e+02	9.15000e+02	2.98251	247.5
916	2.50458e+02	9.16000e+02	2.98209	248.0
917	2.50977e+02	9.17000e+02	2.98167	248.5
918	2.51474e+02	9.18000e+02	2.98125	249.0
919	2.51988e+02	9.19000e+02	2.98084	249.5
920	2.52484e+02	9.20000e+02	2.98044	250.0
921	2.52982e+02	9.21000e+02	2.98003	250.5
922	2.53491e+02	9.22000e+02	2.97963	251.0
923	2.54000e+02	9.23000e+02	2.97923	251.5
924	2.54511e+02	9.24000e+02	2.97883	252.0
925	2.55037e+02	9.25000e+02	2.97841	252.5
926	2.55546e+02	9.26000e+02	2.97798	253.0
927	2.56051e+02	9.27000e+02	2.97755	253.5
928	2.56578e+02	9.28000e+02	2.97709	254.0
929	2.57123e+02	9.29000e+02	2.97664	254.5
930	2.57644e+02	9.30000e+02	2.97619	255.0
931	2.58153e+02	9.31000e+02	2.97575	255.5
932	2.58655e+02	9.32000e+02	2.97529	256.0
933	2.59173e+02	9.33000e+02	2.97483	256.5
934	2.59681e+02	9.34000e+02	2.97436	257.0
935	2.60191e+02	9.35000e+02	2.9739	257.5
936	2.60697e+02	9.36000e+02	2.97342	258.0
937	2.61224e+02	9.37000e+02	2.97294	258.5
938	2.61747e+02	9.38000e+02	2.97247	259.0
939	2.62251e+02	9.39000e+02	2.972	259.5
940	2.62787e+02	9.40000e+02	2.97153	260.0
941	2.63301e+02	9.41000e+02	2.97105	260.5
942	2.63829e+02	9.42000e+02	2.97058	261.0
943	2.64338e+02	9.43000e+02	2.9701	261.5
944	2.64853e+02	9.44000e+02	2.96961	262.0
945	2.65361e+02	9.45000e+02	2.96913	262.5
946	2.65873e+02	9.46000e+02	2.96865	263.0
947	2.66411e+02	9.47000e+02	2.96816	263.5
948	2.66966e+02	9.48000e+02	2.96767	264.0
949	2.67480e+02	9.49000e+02	2.96718	264.5
950	2.68017e+02	9.50000e+02	2.96668	265.0
951	2.68517e+02	9.51000e+02	2.96617	265.5
952	2.69030e+02	9.52000e+02	2.96566	266.0
953	2.69544e+02	9.53000e+02	2.96516	266.5
954	2.70061e+02	9.54000e+02	2.96467	267.0
955	2.70609e+02	9.55000e+02	2.96417	267.5
956	2.71156e+02	9.56000e+02	2.96368	268.0
957	2.71674e+02	9.57000e+02	2.96319	268.5
958	2.72184e+02	9.58000e+02	2.96269	269.0
959	2.72715e+02	9.59000e+02	2.96218	269.5
960	2.73259e+02	9.60000e+02	2.96166	270.0
961	2.73742e+02	9.61000e+02	2.96114	270.5
962	2.74205e+02	9.62000e+02	2.96061	271.0
963	2.74733e+02	9.63000e+02	2.96007	271.5
964	2.75250e+02	9.64000e+02	2.95951	272.0
965	2.75769e+02	9.65000e+02	2.95894	272.5
966	2.76278e+02	9.66000e+02	2.95838	273.0
967	2.76793e+02	9.67000e+02	2.95781	273.5
968	2.77313e+02	9.68000e+02	2.95723	274.0
969	2.77841e+02	9.69000e+02	2.95664	274.5
970	2.78346e+02	9.70000e+02	2.95604	275.0
971	2.78852e+02	9.71000e+02	2.95542	275.5
972	2.79374e+02	9.72000e+02	2.95473	276.0
973	2.79876e+02	9.73000e+02	2.95401	276.5
974	2.80398e+02	9.74000e+02	2.95323	277.0
975	2.80907e+02	9.75000e+02	2.95242	277.5
976	2.81424e+02	9.76000e+02	2.95145	278.0
977	2.81965e+02	9.77000e+02	2.95052	278.5
978	2.82488e+02	9.78000e+02	2.94958	279.0
979	2.83001e+02	9.79000e+02	2.94864	279.5
980	2.83494e+02	9.80000e+02	2.94764	280.0
981	2.84006e+02	9.81000e+02	2.94667	280.5
982	2.84511e+02	9.82000e+02	2.94572	281.0
983	2.85028e+02	9.83000e+02	2.94477	281.5
984	2.85535e+02	9.84000e+02	2.94384	282.0
985	2.86038e+02	9.85000e+02	2.94291	282.5
986	2.86541e+02	9.86000e+02	2.94197	283.0
987	2.87035e+02	9.87000e+02	2.94104	283.5
988	2.87542e+02	9.88000e+02	2.94011	284.0
989	2.88061e+02	9.89000e+02	2.93917	284.5
990	2.88580e+02	9.90000e+02	2.93822	285.0
991	2.89087e+02	9.91000e+02	2.93726	285.5
992	2.89585e+02	9.92000e+02	2.93626	286.0
993	2.90070e+02	9.93000e+02	2.93526	286.5
994	2.90576e+02	9.94000e+02	2.93426	287.0
995	2.91079e+02	9.95000e+02	2.93325	287.5
996	2.91584e+02	9.96000e+02	2.93222	288.0
997	2.92089e+02	9.97000e+02	2.93121	288.5
998	2.92602e+02	9.98000e+02	2.93022	289.0
999	2.93116e+02	9.99000e+02	2.92923	289.5
1000	2.93613e+02	1.00000e+03	2.92828	290.0
1001	2.94124e+02	1.00100e+03	2.92733	290.5
1002	2.94638e+02	1.00200e+03	2.92638	291.0
1003	2.95130e+02	1.00300e+03	2.92543	291.5
1004	2.95643e+02	1.00400e+03	2.92452	292.0
1005	2.96131e+02	1.00500e+03	2.92359	292.5
1006	2.96644e+02	1.00600e+03	2.92266	293.0
1007	2.97152e+02	1.00700e+03	2.92172	293.5
1008	2.97678e+02	1.00800e+03	2.92075	294.0
1009	2.98182e+02	1.00900e+03	2.91978	294.5
1010	2.98698e+02	1.01000e+03	2.91878	295.0
1011	2.99202e+02	1.01100e+03	2.91778	295.5
1012	2.99719e+02	1.01200e+03	2.91672	296.0
1013	3.00228e+02	1.01300e+03	2.91568	296.5
1014	3.00754e+02	1.01400e+03	2.91463	297.0
1015	3.01259e+02	1.01500e+03	2.91358	297.5
1016	3.01782e+02	1.01600e+03	2.91249	298.0
1017	3.02287e+02	1.01700e+03	2.9114	298.5
1018	3.02796e+02	1.01800e+03	2.9103	299.0
1019	3.03297e+02	1.01900e+03	2.90919	299.5
1020	3.03800e+02	1.02000e+03	2.90802	300.0
1021	3.04299e+02	1.02100e+03	2.90686	300.5
1022	3.04807e+02	1.02200e+03	2.90568	301.0
1023	3.05307e+02	1.02300e+03	2.90449	301.5
1024	3.05802e+02	1.02400e+03	2.90324	302.0
1025	3.06317e+02	1.02500e+03	2.90199	302.5
1026	3.06815e+02	1.02600e+03	2.90074	303.0
1027	3.07317e+02	1.02700e+03	2.89947	303.5
1028	3.07820e+02	1.02800e+03	2.89815	304.0
1029	3.08312e+02	1.02900e+03	2.89685	304.5
1030	3.08816e+02	1.03000e+03	2.89553	305.0
1031	3.09307e+02	1.03100e+03	2.89421	305.5
1032	3.09811e+02	1.03200e+03	2.89282	306.0
1033	3.10298e+02	1.03300e+03	2.89143	306.5
1034	3.10793e+02	1.03400e+03	2.89001	307.0
1035	3.11311e+02	1.03500e+03	2.88857	307.5
1036	3.11816e+02	1.03600e+03	2.88704	308.0
1037	3.12334e+02	1.03700e+03	2.88554	308.5
1038	3.12855e+02	1.03800e+03	2.88403	309.0
1039	3.13307e+02	1.03900e+03	2.88251	309.5
1040	3.13809e+02	1.04000e+03	2.88094	310.0
1041	3.14294e+02	1.04100e+03	2.87937	310.5
1042	3.14782e+02	1.04200e+03	2.8778	311.0
1043	3.15285e+02	1.04300e+03	2.87621	311.5
1044	3.15775e+02	1.04400e+03	2.87457	312.0
1045	3.16254e+02	1.04500e+03	2.87293	312.5
1046	3.16750e+02	1.04600e+03	2.87127	313.0
1047	3.17240e+02	1.04700e+03	2.8696	313.5
1048	3.17727e+02	1.04800e+03	2.86786	314.0
1049	3.18218e+02	1.04900e+03	2.86613	314.5
1050	3.18696e+02	1.05000e+03	2.86439	315.0
1051	3.19167e+02	1.05100e+03	2.86263	315.5
1052	3.19659e+02	1.05200e+03	2.86081	316.0
1053	3.20137e+02	1.05300e+03	2.859	316.5
1054	3.20634e+02	1.05400e+03	2.85719	317.0
1055	3.21105e+02	1.05500e+03	2.85537	317.5
1056	3.21583e+02	1.05600e+03	2.85352	318.0
1057	3.22055e+02	1.05700e+03	2.85167	318.5
1058	3.22535e+02	1.05800e+03	2.84982	319.0
1059	3.22998e+02	1.05900e+03	2.84796	319.5
1060	3.23474e+02	1.06000e+03	2.84607	320.0
1061	3.23947e+02	1.06100e+03	2.84419	320.5
1062	3.24396e+02	1.06200e+03	2.84231	321.0
1063	3.24882e+02	1.06300e+03	2.84042	321.5
1064	3.25351e+02	1.06400e+03	2.83851	322.0
1065	3.25819e+02	1.06500e+03	2.83661	322.5
1066	3.26293e+02	1.06600e+03	2.83469	323.0
1067	3.26782e+02	1.06700e+03	2.83277	323.5
1068	3.27260e+02	1.06800e+03	2.83081	324.0
1069	3.27739e+02	1.06900e+03	2.82884	324.5
1070	3.28211e+02	1.07000e+03	2.82686	325.0
1071	3.28690e+02	1.07100e+03	2.82486	325.5
1072	3.29160e+02	1.07200e+03	2.82279	326.0
1073	3.29638e+02	1.07300e+03	2.82073	326.5
1074	3.30123e+02	1.07400e+03	2.81864	327.0
1075	3.30590e+02	1.07500e+03	2.81653	327.5
1076	3.31013e+02	1.07600e+03	2.81433	328.0
1077	3.31427e+02	1.07700e+03	2.81214	328.5
1078	3.31829e+02	1.07800e+03	2.80992	329.0
1079	3.32213e+02	1.07900e+03	2.80769	329.5
1080	3.32637e+02	1.08000e+03	2.80535	330.0
1081	3.33082e+02	1.08100e+03	2.80304	330.5
1082	3.33545e+02	1.08200e+03	2.80071	331.0
1083	3.34034e+02	1.08300e+03	2.79835	331.5
1084	3.34518e+02	1.08400e+03	2.7959	332.0
1085	3.35002e+02	1.08500e+03	2.79345	332.5
1086	3.35502e+02	1.08600e+03	2.79096	333.0
1087	3.35995e+02	1.08700e+03	2.78846	333.5
1088	3.36485e+02	1.08800e+03	2.78583	334.0
1089	3.36986e+02	1.08900e+03	2.78321	334.5
1090	3.37491e+02	1.09000e+03	2.78058	335.0
1091	3.37978e+02	1.09100e+03	2.77791	335.5
1092	3.38470e+02	1.09200e+03	2.77511	336.0
1093	3.38977e+02	1.09300e+03	2.77232	336.5
1094	3.39476e+02	1.09400e+03	2.76948	337.0
1095	3.39968e+02	1.09500e+03	2.76661	337.5
1096	3.40463e+02	1.09600e+03	2.76357	338.0
1097	3.40971e+02	1.09700e+03	2.76053	338.5
1098	3.41460e+02	1.09800e+03	2.75745	339.0
1099	3.41945e+02	1.09900e+03	2.75433	339.5
1100	3.42444e+02	1.10000e+03	2.75098	340.0
1101	3.42943e+02	1.10100e+03	2.74765	340.5
1102	3.43422e+02	1.10200e+03	2.74426	341.0
1103	3.43930e+02	1.10300e+03	2.74081	341.5
1104	3.44428e+02	1.10400e+03	2.73709	342.0
1105	3.44915e+02	1.10500e+03	2.7334	342.5
1106	3.45421e+02	1.10600e+03	2.72962	343.0
1107	3.45908e+02	1.10700e+03	2.72578	343.5
1108	3.46395e+02	1.10800e+03	2.7216	344.0
1109	3.46896e+02	1.10900e+03	2.71744	344.5
1110	3.47408e+02	1.11000e+03	2.71318	345.0
1111	3.47897e+02	1.11100e+03	2.70884	345.5
1112	3.48397e+02	1.11200e+03	2.70408	346.0
1113	3.48885e+02	1.11300e+03	2.69936	346.5
1114	3.49375e+02	1.11400e+03	2.69455	347.0
1115	3.49867e+02	1.11500e+03	2.68966	347.5
1116	3.50363e+02	1.11600e+03	2.68429	348.0
1117	3.50844e+02	1.11700e+03	2.67897	348.5
1118	3.51352e+02	1.11800e+03	2.67352	349.0
1119	3.51852e+02	1.11900e+03	2.66796	349.5
1120	3.52355e+02	1.12000e+03	2.66186	350.0
1121	3.52835e+02	1.12100e+03	2.65581	350.5
1122	3.53340e+02	1.12200e+03	2.64962	351.0
1123	3.53853e+02	1.12300e+03	2.6433	351.5
1124	3.54367e+02	1.12400e+03	2.63631	352.0
1125	3.54868e+02	1.12500e+03	2.62937	352.5
1126	3.55374e+02	1.12600e+03	2.62223	353.0
1127	3.55868e+02	1.12700e+03	2.61493	353.5
1128	3.56363e+02	1.12800e+03	2.60681	354.0
1129	3.56850e+02	1.12900e+03	2.59877	354.5
1130	3.57342e+02	1.13000e+03	2.59054	355.0
1131	3.57835e+02	1.13100e+03	2.58213	355.5
1132	3.58329e+02	1.13200e+03	2.57279	356.0
1133	3.58816e+02	1.13300e+03	2.56356	356.5
1134	3.59311e+02	1.13400e+03	2.55409	357.0
1135	3.59794e+02	1.13500e+03	2.54443	357.5
1136	3.60289e+02	1.13600e+03	2.53372	358.0
1137	3.60781e+02	1.13700e+03	2.52313	358.5
1138	3.61268e+02	1.13800e+03	2.51229	359.0
1139	3.61768e+02	1.13900e+03	2.50124	359.5
1140	3.62259e+02	1.14000e+03	2.48909	360.0
1141	3.62763e+02	1.14100e+03	2.4771	360.5
1142	3.63276e+02	1.14200e+03	2.4649	361.0
1143	3.63790e+02	1.14300e+03	2.45249	361.5
1144	3.64306e+02	1.14400e+03	2.43904	362.0
1145	3.64826e+02	1.14500e+03	2.42574	362.5
1146	3.65366e+02	1.14600e+03	2.41223	363.0
1147	3.65903e+02	1.14700e+03	2.39852	363.5
1148	3.66454e+02	1.14800e+03	2.3838	364.0
1149	3.66966e+02	1.14900e+03	2.36921	364.5
1150	3.67477e+02	1.15000e+03	2.3544	365.0
1151	3.67958e+02	1.15100e+03	2.33939	365.5
1152	3.68459e+02	1.15200e+03	2.32334	366.0
1153	3.68954e+02	1.15300e+03	2.30741	366.5
1154	3.69448e+02	1.15400e+03	2.29124	367.0
1155	3.69938e+02	1.15500e+03	2.27487	367.5
1156	3.70427e+02	1.15600e+03	2.25743	368.0
1157	3.70916e+02	1.15700e+03	2.24014	368.5
1158	3.71403e+02	1.15800e+03	2.22265	369.0
1159	3.71886e+02	1.15900e+03	2.20495	369.5
1160	3.72379e+02	1.16000e+03	2.18623	370.0
1161	3.72861e+02	1.16100e+03	2.16764	370.5
1162	3.73351e+02	1.16200e+03	2.14884	371.0
1163	3.73834e+02	1.16300e+03	2.12984	371.5
1164	3.74324e+02	1.16400e+03	2.10983	372.0
1165	3.74808e+02	1.16500e+03	2.08997	372.5
1166	3.75288e+02	1.16600e+03	2.06991	373.0
1167	3.75779e+02	1.16700e+03	2.04965	373.5
1168	3.76259e+02	1.16800e+03	2.02841	374.0
1169	3.76749e+02	1.16900e+03	2.00731	374.5
1170	3.77232e+02	1.17000e+03	1.98599	375.0
1171	3.77721e+02	1.17100e+03	1.96448	375.5
1172	3.78207e+02	1.17200e+03	1.942	376.0
1173	3.78698e+02	1.17300e+03	1.91969	376.5
1174	3.79189e+02	1.17400e+03	1.89721	377.0
1175	3.79678e+02	1.17500e+03	1.87459	377.5
1176	3.80166e+02	1.17600e+03	1.85114	378.0
1177	3.80659e+02	1.17700e+03	1.82787	378.5
1178	3.81155e+02	1.17800e+03	1.80445	379.0
1179	3.81649e+02	1.17900e+03	1.78089	379.5
1180	3.82131e+02	1.18000e+03	1.75664	380.0
1181	3.82635e+02	1.18100e+03	1.73247	380.5
1182	3.83122e+02	1.18200e+03	1.70815	381.0
1183	3.83610e+02	1.18300e+03	1.68371	381.5
1184	3.84107e+02	1.18400e+03	1.6586	382.0
1185	3.84598e+02	1.18500e+03	1.63364	382.5
1186	3.85098e+02	1.18600e+03	1.6086	383.0
1187	3.85594e+02	1.18700e+03	1.58349	383.5
1188	3.86095e+02	1.18800e+03	1.55793	384.0
1189	3.86600e+02	1.18900e+03	1.5325	384.5
1190	3.87081e+02	1.19000e+03	1.50703	385.0
1191	3.87576e+02	1.19100e+03	1.48153	385.5
1192	3.88079e+02	1.19200e+03	1.4558	386.0
1193	3.88563e+02	1.19300e+03	1.43014	386.5
1194	3.89067e+02	1.19400e+03	1.40447	387.0
1195	3.89574e+02	1.19500e+03	1.37878	387.5
1196	3.90069e+02	1.19600e+03	1.35298	388.0
1197	3.90567e+02	1.19700e+03	1.32719	388.5
1198	3.91095e+02	1.19800e+03	1.30139	389.0
1199	3.91614e+02	1.19900e+03	1.27558	389.5
1200	3.92138e+02	1.20000e+03	1.24971	390.0
1201	3.92646e+02	1.20100e+03	1.22388	390.5
1202	3.93146e+02	1.20200e+03	1.19807	391.0
1203	3.93652e+02	1.20300e+03	1.17228	391.5
1204	3.94150e+02	1.20400e+03	1.14655	392.0
1205	3.94649e+02	1.20500e+03	1.12081	392.5
1206	3.95151e+02	1.20600e+03	1.09508	393.0
1207	3.95650e+02	1.20700e+03	1.06934	393.5
1208	3.96151e+02	1.20800e+03	1.04365	394.0
1209	3.96650e+02	1.20900e+03	1.01791	394.5
1210	3.97147e+02	1.21000e+03	0.992143	395.0
1211	3.97649e+02	1.21100e+03	0.966372	395.5
1212	3.98170e+02	1.21200e+03	0.940537	396.0
1213	3.98673e+02	1.21300e+03	0.914733	396.5
1214	3.99168e+02	1.21400e+03	0.888925	397.0
1215	3.99668e+02	1.21500e+03	0.86311	397.5
1216	4.00165e+02	1.21600e+03	0.837294	398.0
1217	4.00678e+02	1.21700e+03	0.811497	398.5
1218	4.01180e+02	1.21800e+03	0.785728	399.0
1219	4.01681e+02	1.21900e+03	0.759982	399.5
1220	4.02183e+02	1.22000e+03	0.734347	400.0
1221	4.02722e+02	1.22100e+03	0.70876	400.5
1222	4.03247e+02	1.22200e+03	0.683274	401.0
1223	4.03759e+02	1.22300e+03	0.657873	401.5
1224	4.04274e+02	1.22400e+03	0.632902	402.0
1225	4.04815e+02	1.22500e+03	0.608011	402.5
1226	4.05338e+02	1.22600e+03	0.583362	403.0
1227	4.05859e+02	1.22700e+03	0.558918	403.5
1228	4.06395e+02	1.22800e+03	0.535471	404.0
1229	4.06911e+02	1.22900e+03	0.512085	404.5
1230	4.07449e+02	1.23000e+03	0.489087	405.0
1231	4.07965e+02	1.23100e+03	0.46641	405.5
1232	4.08495e+02	1.23200e+03	0.445354	406.0
1233	4.09017e+02	1.23300e+03	0.424185	406.5
1234	4.09549e+02	1.23400e+03	0.403452	407.0
1235	4.10073e+02	1.23500e+03	0.3831	407.5
1236	4.10568e+02	1.23600e+03	0.364711	408.0
1237	4.11089e+02	1.23700e+03	0.346111	408.5
1238	4.11602e+02	1.23800e+03	0.327971	409.0
1239	4.12090e+02	1.23900e+03	0.310242	409.5
1240	4.12594e+02	1.24000e+03	0.294613	410.0
1241	4.13090e+02	1.24100e+03	0.278703	410.5
1242	4.13591e+02	1.24200e+03	0.263226	411.0
1243	4.14103e+02	1.24300e+03	0.248147	411.5
1244	4.14599e+02	1.24400e+03	0.235117	412.0
1245	4.15104e+02	1.24500e+03	0.221769	412.5
1246	4.15622e+02	1.24600e+03	0.208809	413.0
1247	4.16121e+02	1.24700e+03	0.196217	413.5
1248	4.16614e+02	1.24800e+03	0.185503	414.0
1249	4.17129e+02	1.24900e+03	0.174485	414.5
1250	4.17630e+02	1.25000e+03	0.163805	415.0
1251	4.18132e+02	1.25100e+03	0.15345	415.5
1252	4.18641e+02	1.25200e+03	0.144768	416.0
1253	4.19144e+02	1.25300e+03	0.135805	416.5
1254	4.19650e+02	1.25400e+03	0.127143	417.0
1255	4.20157e+02	1.25500e+03	0.118768	417.5
1256	4.20706e+02	1.25600e+03	0.111858	418.0
1257	4.21223e+02	1.25700e+03	0.104701	418.5
1258	4.21745e+02	1.25800e+03	0.0977906	419.0
1259	4.22265e+02	1.25900e+03	0.0911186	419.5
1260	4.22776e+02	1.26000e+03	0.0856932	420.0
1261	4.23270e+02	1.26100e+03	0.0800299	420.5
1262	4.23772e+02	1.26200e+03	0.0745651	421.0
1263	4.24292e+02	1.26300e+03	0.069299	421.5
1264	4.24805e+02	1.26400e+03	0.0650387	422.0
1265	4.25319e+02	1.26500e+03	0.0606016	422.5
1266	4.25844e+02	1.26600e+03	0.0563292	423.0
1267	4.26356e+02	1.26700e+03	0.0522166	423.5
1268	4.26853e+02	1.26800e+03	0.0489358	424.0
1269	4.27359e+02	1.26900e+03	0.045488	424.5
1270	4.27870e+02	1.27000e+03	0.0421625	425.0
1271	4.28370e+02	1.27100e+03	0.0389621	425.5
1272	4.28874e+02	1.27200e+03	0.0364103	426.0
1273	4.29372e+02	1.27300e+03	0.0337381	426.5
1274	4.29886e+02	1.27400e+03	0.0311669	427.0
1275	4.30386e+02	1.27500e+03	0.0286953	427.5
1276	4.30896e+02	1.27600e+03	0.0267391	428.0
1277	4.31406e+02	1.27700e+03	0.0246769	428.5
1278	4.31902e+02	1.27800e+03	0.0226868	429.0
1279	4.32395e+02	1.27900e+03	0.02077	429.5
1280	4.32890e+02	1.28000e+03	0.01923	430.0
1281	4.33366e+02	1.28100e+03	0.0176088	430.5
1282	4.33855e+02	1.28200e+03	0.0160383	431.0
1283	4.34375e+02	1.28300e+03	0.0145197	431.5
1284	4.34886e+02	1.28400e+03	0.0132635	432.0
1285	4.35387e+02	1.28500e+03	0.011952	432.5
1286	4.35916e+02	1.28600e+03	0.0106813	433.0
1287	4.36442e+02	1.28700e+03	0.0094533	433.5
1288	4.36950e+02	1.28800e+03	0.0084392	434.0
1289	4.37491e+02	1.28900e+03	0.0073977	434.5
1290	4.38004e+02	1.29000e+03	0.00639741	435.0
1291	4.38504e+02	1.29100e+03	0.00543392	435.5
1292	4.39005e+02	1.29200e+03	0.00465947	436.0
1293	4.39514e+02	1.29300e+03	0.00383419	436.5
1294	4.40033e+02	1.29400e+03	0.00302595	437.0
1295	4.40536e+02	1.29500e+03	0.00223899	437.5
1296	4.41050e+02	1.29600e+03	0.00156894	438.0
1297	4.41548e+02	1.29700e+03	0.00087837	438.5
1298	4.42049e+02	1.29800e+03	0.000208597	439.0
1299	4.42568e+02	1.29900e+03	-0.000441684	439.5
1300	4.43052e+02	1.30000e+03	-0.0010047	440.0
1301	4.43554e+02	1.30100e+03	-0.00159001	440.5
1302	4.44046e+02	1.30200e+03	-0.00216838	441.0
1303	4.44567e+02	1.30300e+03	-0.00273756	441.5
1304	4.45073e+02	1.30400e+03	-0.00325063	442.0
1305	4.45583e+02	1.30500e+03	-0.00377504	442.5
1306	4.46098e+02	1.30600e+03	-0.00428714	443.0
1307	4.46587e+02	1.30700e+03	-0.00478716	443.5
1308	4.47096e+02	1.30800e+03	-0.00523825	444.0
1309	4.47586e+02	1.30900e+03	-0.00568897	444.5
1310	4.48097e+02	1.31000e+03	-0.00612494	445.0
1311	4.48599e+02	1.31100e+03	-0.00654862	445.5
1312	4.49110e+02	1.31200e+03	-0.00689618	446.0
1313	4.49616e+02	1.31300e+03	-0.00725032	446.5
1314	4.50163e+02	1.31400e+03	-0.007586	447.0
1315	4.50689e+02	1.31500e+03	-0.00790584	447.5
1316	4.51185e+02	1.31600e+03	-0.00814195	448.0
1317	4.51638e+02	1.31700e+03	-0.00839002	448.5
1318	4.52224e+02	1.31800e+03	-0.00862356	449.0
1319	4.52782e+02	1.31900e+03	-0.00884354	449.5
1320	4.53326e+02	1.32000e+03	-0.00899783	450.0
1321	4.53839e+02	1.32100e+03	-0.00917476	450.5
1322	4.54303e+02	1.32200e+03	-0.00934981	451.0
1323	4.54777e+02	1.32300e+03	-0.00952048	451.5
1324	4.55294e+02	1.32400e+03	-0.0096633	452.0
1325	4.55781e+02	1.32500e+03	-0.00981196	452.5
1326	4.56249e+02	1.32600e+03	-0.00995785	453.0
1327	4.56760e+02	1.32700e+03	-0.0100998	453.5
1328	4.57271e+02	1.32800e+03	-0.0102158	454.0
1329	4.57779e+02	1.32900e+03	-0.0103274	454.5
1330	4.58270e+02	1.33000e+03	-0.0104271	455.0
1331	4.58734e+02	1.33100e+03	-0.0105179	455.5
1332	4.59238e+02	1.33200e+03	-0.0105646	456.0
1333	4.59726e+02	1.33300e+03	-0.010619	456.5
1334	4.60220e+02	1.33400e+03	-0.0106713	457.0
1335	4.60699e+02	1.33500e+03	-0.0107214	457.5
1336	4.61204e+02	1.33600e+03	-0.0107482	458.0
1337	4.61688e+02	1.33700e+03	-0.0107907	458.5
1338	4.62206e+02	1.33800e+03	-0.0108334	459.0
1339	4.62712e+02	1.33900e+03	-0.0108728	459.5
1340	4.63227e+02	1.34000e+03	-0.0109103	460.0
1341	4.63751e+02	1.34100e+03	-0.0109397	460.5
1342	4.64241e+02	1.34200e+03	-0.0109653	461.0
1343	4.64744e+02	1.34300e+03	-0.0109896	461.5
1344	4.65246e+02	1.34400e+03	-0.0109993	462.0
1345	4.65738e+02	1.34500e+03	-0.0110178	462.5
1346	4.66241e+02	1.34600e+03	-0.0110354	463.0
1347	4.66696e+02	1.34700e+03	-0.0110505	463.5
1348	4.67186e+02	1.34800e+03	-0.011067	464.0
1349	4.67668e+02	1.34900e+03	-0.0110815	464.5
1350	4.68153e+02	1.35000e+03	-0.0110994	465.0
1351	4.68662e+02	1.35100e+03	-0.0111216	465.5
1352	4.69156e+02	1.35200e+03	-0.0111536	466.0
1353	4.69651e+02	1.35300e+03	-0.0111945	466.5
1354	4.70134e+02	1.35400e+03	-0.0112423	467.0
1355	4.70624e+02	1.35500e+03	-0.0112937	467.5
1356	4.71115e+02	1.35600e+03	-0.011371	468.0
1357	4.71622e+02	1.35700e+03	-0.0114314	468.5
1358	4.72103e+02	1.35800e+03	-0.0114857	469.0
1359	4.72589e+02	1.35900e+03	-0.0115382	469.5
1360	4.73076e+02	1.36000e+03	-0.0115802	470.0
1361	4.73593e+02	1.36100e+03	-0.011622	470.5
1362	4.74099e+02	1.36200e+03	-0.0116601	471.0
1363	4.74590e+02	1.36300e+03	-0.0116948	471.5
1364	4.75120e+02	1.36400e+03	-0.0117097	472.0
1365	4.75588e+02	1.36500e+03	-0.0117256	472.5
1366	4.76131e+02	1.36600e+03	-0.0117385	473.0
1367	4.76636e+02	1.36700e+03	-0.0117501	473.5
1368	4.77120e+02	1.36800e+03	-0.0117514	474.0
1369	4.77609e+02	1.36900e+03	-0.0117626	474.5
1370	4.78122e+02	1.37000e+03	-0.0117766	475.0
1371	4.78617e+02	1.37100e+03	-0.0117911	475.5
1372	4.79128e+02	1.37200e+03	-0.0118103	476.0
1373	4.79613e+02	1.37300e+03	-0.0118226	476.5
1374	4.80126e+02	1.37400e+03	-0.0118309	477.0
1375	4.80623e+02	1.37500e+03	-0.0118366	477.5
1376	4.81112e+02	1.37600e+03	-0.0118331	478.0
1377	4.81591e+02	1.37700e+03	-0.0118335	478.5
1378	4.82066e+02	1.37800e+03	-0.0118349	479.0
1379	4.82556e+02	1.37900e+03	-0.0118369	479.5
1380	4.83053e+02	1.38000e+03	-0.0118399	480.0
1381	4.83568e+02	1.38100e+03	-0.0118446	480.5
1382	4.84058e+02	1.38200e+03	-0.0118483	481.0
1383	4.84547e+02	1.38300e+03	-0.0118516	481.5
1384	4.85032e+02	1.38400e+03	-0.0118579	482.0
1385	4.85569e+02	1.38500e+03	-0.0118615	482.5
1386	4.86093e+02	1.38600e+03	-0.0118658	483.0
1387	4.86587e+02	1.38700e+03	-0.0118708	483.5
1388	4.87136e+02	1.38800e+03	-0.0118727	484.0
1389	4.87637e+02	1.38900e+03	-0.0118774	484.5
1390	4.88175e+02	1.39000e+03	-0.0118846	485.0
1391	4.88696e+02	1.39100e+03	-0.011894	485.5
1392	4.89235e+02	1.39200e+03	-0.0119215	486.0
1393	4.89724e+02	1.39300e+03	-0.0119537	486.5
1394	4.90180e+02	1.39400e+03	-0.0119932	487.0
1395	4.90707e+02	1.39500e+03	-0.0120373	487.5
1396	4.91216e+02	1.39600e+03	-0.0121032	488.0
1397	4.91709e+02	1.39700e+03	-0.0121522	488.5
1398	4.92237e+02	1.39800e+03	-0.012193	489.0
1399	4.92750e+02	1.39900e+03	-0.0122292	489.5
1400	4.93204e+02	1.40000e+03	-0.0122486	490.0
1401	4.93667e+02	1.40100e+03	-0.0122691	490.5
1402	4.94136e+02	1.40200e+03	-0.0122892	491.0
1403	4.94596e+02	1.40300e+03	-0.0123093	491.5
1404	4.95055e+02	1.40400e+03	-0.0123161	492.0
1405	4.95512e+02	1.40500e+03	-0.0123324	492.5
1406	4.96023e+02	1.40600e+03	-0.0123494	493.0
1407	4.96551e+02	1.40700e+03	-0.0123652	493.5
1408	4.97037e+02	1.40800e+03	-0.0123855	494.0
1409	4.97549e+02	1.40900e+03	-0.0124021	494.5
1410	4.98065e+02	1.41000e+03	-0.01242	495.0
1411	4.98572e+02	1.41100e+03	-0.0124401	495.5
1412	4.99054e+02	1.41200e+03	-0.0124615	496.0
1413	4.99512e+02	1.41300e+03	-0.0124857	496.5
1414	4.99991e+02	1.41400e+03	-0.0125075	497.0
1415	5.00470e+02	1.41500e+03	-0.0125264	497.5
1416	5.00957e+02	1.41600e+03	-0.01254	498.0
1417	5.01424e+02	1.41700e+03	-0.0125434	498.5
1418	5.01920e+02	1.41800e+03	-0.0125428	499.0
1419	5.02424e+02	1.41900e+03	-0.0125412	499.5
1420	5.02901e+02	1.42000e+03	-0.01252	500.0
1421	5.03393e+02	1.42100e+03	-0.0125137	500.5
1422	5.03882e+02	1.42200e+03	-0.0125111	501.0
1423	5.04376e+02	1.42300e+03	-0.012509	501.5
1424	5.04851e+02	1.42400e+03	-0.012516	502.0
1425	5.05320e+02	1.42500e+03	-0.0125173	502.5
1426	5.05787e+02	1.42600e+03	-0.0125198	503.0
1427	5.06261e+02	1.42700e+03	-0.012525	503.5
1428	5.06722e+02	1.42800e+03	-0.0125349	504.0
1429	5.07195e+02	1.42900e+03	-0.0125473	504.5
1430	5.07673e+02	1.43000e+03	-0.01256	505.0
1431	5.08157e+02	1.43100e+03	-0.0125714	505.5
1432	5.08631e+02	1.43200e+03	-0.0125831	506.0
1433	5.09122e+02	1.43300e+03	-0.0125845	506.5
1434	5.09602e+02	1.43400e+03	-0.0125805	507.0
1435	5.10073e+02	1.43500e+03	-0.0125741	507.5
1436	5.10535e+02	1.43600e+03	-0.0125483	508.0
1437	5.10994e+02	1.43700e+03	-0.0125324	508.5
1438	5.11460e+02	1.43800e+03	-0.0125176	509.0
1439	5.11939e+02	1.43900e+03	-0.0125018	509.5
1440	5.12421e+02	1.44000e+03	-0.0124844	510.0
1441	5.12902e+02	1.44100e+03	-0.0124683	510.5
1442	5.13359e+02	1.44200e+03	-0.0124558	511.0
1443	5.13842e+02	1.44300e+03	-0.0124467	511.5
1444	5.14315e+02	1.44400e+03	-0.0124564	512.0
1445	5.14784e+02	1.44500e+03	-0.0124763	512.5
1446	5.15265e+02	1.44600e+03	-0.0125052	513.0
1447	5.15741e+02	1.44700e+03	-0.012538	513.5
1448	5.16215e+02	1.44800e+03	-0.0125995	514.0
1449	5.16704e+02	1.44900e+03	-0.0126401	514.5
1450	5.17180e+02	1.45000e+03	-0.0126727	515.0
1451	5.17645e+02	1.45100e+03	-0.0127019	515.5
1452	5.18111e+02	1.45200e+03	-0.0127165	516.0
1453	5.18590e+02	1.45300e+03	-0.0127353	516.5
1454	5.19077e+02	1.45400e+03	-0.0127534	517.0
1455	5.19560e+02	1.45500e+03	-0.0127701	517.5
1456	5.20051e+02	1.45600e+03	-0.0127746	518.0
1457	5.20540e+02	1.45700e+03	-0.0127827	518.5
1458	5.21030e+02	1.45800e+03	-0.0127897	519.0
1459	5.21534e+02	1.45900e+03	-0.0127954	519.5
1460	5.22026e+02	1.46000e+03	-0.0128006	520.0
1461	5.22523e+02	1.46100e+03	-0.0128106	520.5
1462	5.23024e+02	1.46200e+03	-0.0128233	521.0
1463	5.23515e+02	1.46300e+03	-0.0128371	521.5
1464	5.24031e+02	1.46400e+03	-0.0128565	522.0
1465	5.24540e+02	1.46500e+03	-0.0128709	522.5
1466	5.24433e+02	1.46600e+03	-0.0128822	523.0
1467	5.26446e+02	1.46700e+03	-0.0128917	523.5
1468	5.26641e+02	1.46800e+03	-0.0128968	524.0
1469	5.26931e+02	1.46900e+03	-0.0129029	524.5
1470	5.27298e+02	1.47000e+03	-0.0129088	525.0
1471	5.27703e+02	1.47100e+03	-0.0129139	525.5
1472	5.28152e+02	1.47200e+03	-0.0129107	526.0
1473	5.28587e+02	1.47300e+03	-0.0129073	526.5
1474	5.29042e+02	1.47400e+03	-0.0129019	527.0
1475	5.29489e+02	1.47500e+03	-0.0128953	527.5
1476	5.29932e+02	1.47600e+03	-0.0128805	528.0
1477	5.30401e+02	1.47700e+03	-0.012869	528.5
1478	5.30854e+02	1.47800e+03	-0.0128584	529.0
1479	5.31307e+02	1.47900e+03	-0.0128477	529.5
1480	5.31772e+02	1.48000e+03	-0.0128336	530.0
1481	5.32241e+02	1.48100e+03	-0.0128202	530.5
1482	5.32708e+02	1.48200e+03	-0.0128071	531.0
1483	5.33154e+02	1.48300e+03	-0.0127946	531.5
1484	5.33624e+02	1.48400e+03	-0.0127917	532.0
1485	5.34091e+02	1.48500e+03	-0.0127966	532.5
1486	5.34551e+02	1.48600e+03	-0.0128123	533.0
1487	5.35011e+02	1.48700e+03	-0.0128359	533.5
1488	5.35484e+02	1.48800e+03	-0.0128916	534.0
1489	5.35958e+02	1.48900e+03	-0.0129372	534.5
1490	5.36445e+02	1.49000e+03	-0.0129789	535.0
1491	5.36924e+02	1.49100e+03	-0.0130189	535.5
1492	5.37407e+02	1.49200e+03	-0.0130661	536.0
1493	5.37878e+02	1.49300e+03	-0.0131017	536.5
1494	5.38363e+02	1.49400e+03	-0.0131336	537.0
1495	5.38836e+02	1.49500e+03	-0.013165	537.5
1496	5.39315e+02	1.49600e+03	-0.0131784	538.0
1497	5.39804e+02	1.49700e+03	-0.0131983	538.5
1498	5.40282e+02	1.49800e+03	-0.0132141	539.0
1499	5.40763e+02	1.49900e+03	-0.0132255	539.5
1500	5.41253e+02	1.50000e+03	-0.0132234	540.0
1501	5.41735e+02	1.50100e+03	-0.0132178	540.5
1502	5.42216e+02	1.50200e+03	-0.0132102	541.0
1503	5.42701e+02	1.50300e+03	-0.013202	541.5
1504	5.43173e+02	1.50400e+03	-0.0131808	542.0
1505	5.43656e+02	1.50500e+03	-0.013173	542.5
1506	5.44137e+02	1.50600e+03	-0.0131682	543.0
1507	5.44624e+02	1.50700e+03	-0.0131639	543.5
1508	5.45099e+02	1.50800e+03	-0.0131725	544.0
1509	5.45585e+02	1.50900e+03	-0.013174	544.5
1510	5.46067e+02	1.51000e+03	-0.0131752	545.0
1511	5.46540e+02	1.51100e+03	-0.0131776	545.5
1512	5.47032e+02	1.51200e+03	-0.0131805	546.0
1513	5.47510e+02	1.51300e+03	-0.013186	546.5
1514	5.47990e+02	1.51400e+03	-0.0131923	547.0
1515	5.48474e+02	1.51500e+03	-0.0131985	547.5
1516	5.48965e+02	1.51600e+03	-0.01321	548.0
1517	5.49452e+02	1.51700e+03	-0.0132194	548.5
1518	5.49922e+02	1.51800e+03	-0.0132303	549.0
1519	5.50398e+02	1.51900e+03	-0.0132432	549.5
1520	5.50896e+02	1.52000e+03	-0.0132616	550.0
1521	5.51378e+02	1.52100e+03	-0.0132815	550.5
1522	5.51874e+02	1.52200e+03	-0.0133018	551.0
1523	5.52352e+02	1.52300e+03	-0.0133215	551.5
1524	5.52831e+02	1.52400e+03	-0.0133448	552.0
1525	5.53309e+02	1.52500e+03	-0.0133596	552.5
1526	5.53794e+02	1.52600e+03	-0.0133691	553.0
1527	5.54287e+02	1.52700e+03	-0.0133764	553.5
1528	5.54772e+02	1.52800e+03	-0.0133692	554.0
1529	5.55272e+02	1.52900e+03	-0.0133664	554.5
1530	5.55754e+02	1.53000e+03	-0.0133621	555.0
1531	5.56252e+02	1.53100e+03	-0.0133565	555.5
1532	5.56743e+02	1.53200e+03	-0.0133443	556.0
1533	5.57232e+02	1.53300e+03	-0.013336	556.5
1534	5.57706e+02	1.53400e+03	-0.0133317	557.0
1535	5.58184e+02	1.53500e+03	-0.0133313	557.5
1536	5.58679e+02	1.53600e+03	-0.0133456	558.0
1537	5.59166e+02	1.53700e+03	-0.013365	558.5
1538	5.59649e+02	1.53800e+03	-0.0133896	559.0
1539	5.60135e+02	1.53900e+03	-0.013417	559.5
1540	5.60620e+02	1.54000e+03	-0.013466	560.0
1541	5.61107e+02	1.54100e+03	-0.0135006	560.5
1542	5.61600e+02	1.54200e+03	-0.013532	561.0
1543	5.62102e+02	1.54300e+03	-0.0135639	561.5
1544	5.62587e+02	1.54400e+03	-0.0135921	562.0
1545	5.63082e+02	1.54500e+03	-0.0136257	562.5
1546	5.63573e+02	1.54600e+03	-0.0136602	563.0
1547	5.64067e+02	1.54700e+03	-0.0136929	563.5
1548	5.64554e+02	1.54800e+03	-0.0137231	564.0
1549	5.65049e+02	1.54900e+03	-0.0137472	564.5
1550	5.65545e+02	1.55000e+03	-0.0137663	565.0
1551	5.66038e+02	1.55100e+03	-0.0137825	565.5
1552	5.66544e+02	1.55200e+03	-0.0137864	566.0
1553	5.67037e+02	1.55300e+03	-0.0138	566.5
1554	5.67539e+02	1.55400e+03	-0.0138179	567.0
1555	5.68046e+02	1.55500e+03	-0.0138372	567.5
1556	5.68542e+02	1.55600e+03	-0.0138589	568.0
1557	5.69039e+02	1.55700e+03	-0.0138774	568.5
1558	5.69519e+02	1.55800e+03	-0.0138934	569.0
1559	5.70017e+02	1.55900e+03	-0.013908	569.5
1560	5.70515e+02	1.56000e+03	-0.0139226	570.0
1561	5.71008e+02	1.56100e+03	-0.0139399	570.5
1562	5.71506e+02	1.56200e+03	-0.0139611	571.0
1563	5.72011e+02	1.56300e+03	-0.013985	571.5
1564	5.72517e+02	1.56400e+03	-0.0140146	572.0
1565	5.73011e+02	1.56500e+03	-0.0140427	572.5
1566	5.73503e+02	1.56600e+03	-0.0140699	573.0
1567	5.74001e+02	1.56700e+03	-0.0140967	573.5
1568	5.74490e+02	1.56800e+03	-0.0141262	574.0
1569	5.74974e+02	1.56900e+03	-0.0141509	574.5
1570	5.75468e+02	1.57000e+03	-0.0141737	575.0
1571	5.75994e+02	1.57100e+03	-0.0141958	575.5
1572	5.76494e+02	1.57200e+03	-0.0142106	576.0
1573	5.77021e+02	1.57300e+03	-0.0142268	576.5
1574	5.77553e+02	1.57400e+03	-0.0142394	577.0
1575	5.78084e+02	1.57500e+03	-0.0142486	577.5
1576	5.78593e+02	1.57600e+03	-0.0142472	578.0
1577	5.79094e+02	1.57700e+03	-0.0142465	578.5
1578	5.79608e+02	1.57800e+03	-0.0142471	579.0
1579	5.80124e+02	1.57900e+03	-0.0142488	579.5
1580	5.80685e+02	1.58000e+03	-0.0142457	580.0
1581	5.81212e+02	1.58100e+03	-0.0142517	580.5
1582	5.81755e+02	1.58200e+03	-0.0142606	581.0
1583	5.82296e+02	1.58300e+03	-0.0142694	581.5
1584	5.82784e+02	1.58400e+03	-0.0142873	582.0
1585	5.83297e+02	1.58500e+03	-0.0142969	582.5
1586	5.83822e+02	1.58600e+03	-0.0143052	583.0
1587	5.84306e+02	1.58700e+03	-0.014314	583.5
1588	5.84825e+02	1.58800e+03	-0.0143172	584.0
1589	5.85323e+02	1.58900e+03	-0.0143243	584.5
1590	5.85822e+02	1.59000e+03	-0.0143307	585.0
1591	5.86335e+02	1.59100e+03	-0.0143349	585.5
1592	5.86852e+02	1.59200e+03	-0.0143336	586.0
1593	5.87323e+02	1.59300e+03	-0.0143291	586.5
1594	5.87791e+02	1.59400e+03	-0.014325	587.0
1595	5.88282e+02	1.59500e+03	-0.0143232	587.5
1596	5.88753e+02	1.59600e+03	-0.0143212	588.0
1597	5.89241e+02	1.59700e+03	-0.0143289	588.5
1598	5.89723e+02	1.59800e+03	-0.0143401	589.0
1599	5.90236e+02	1.59900e+03	-0.0143522	589.5
1600	5.90762e+02	1.60000e+03	-0.0143809	590.0
1601	5.91231e+02	1.60100e+03	-0.0143984	590.5
1602	5.91721e+02	1.60200e+03	-0.0144153	591.0
1603	5.92191e+02	1.60300e+03	-0.0144342	591.5
1604	5.92686e+02	1.60400e+03	-0.0144512	592.0
1605	5.93208e+02	1.60500e+03	-0.0144716	592.5
1606	5.93710e+02	1.60600e+03	-0.01449	593.0
1607	5.94188e+02	1.60700e+03	-0.0145056	593.5
1608	5.94667e+02	1.60800e+03	-0.0145159	594.0
1609	5.95157e+02	1.60900e+03	-0.0145177	594.5
1610	5.95650e+02	1.61000e+03	-0.0145137	595.0
1611	5.96158e+02	1.61100e+03	-0.014507	595.5
1612	5.96639e+02	1.61200e+03	-0.014482	596.0
1613	5.97130e+02	1.61300e+03	-0.0144689	596.5
1614	5.97611e+02	1.61400e+03	-0.0144563	597.0
1615	5.98095e+02	1.61500e+03	-0.0144423	597.5
1616	5.98578e+02	1.61600e+03	-0.0144252	598.0
1617	5.99060e+02	1.61700e+03	-0.0144017	598.5
1618	5.99572e+02	1.61800e+03	-0.0143733	599.0
1619	6.00076e+02	1.61900e+03	-0.014342	599.5
1620	6.00564e+02	1.62000e+03	-0.0142953	600.0
1621	6.01051e+02	1.62100e+03	-0.014257	600.5
1622	6.01539e+02	1.62200e+03	-0.0142219	601.0
1623	6.02028e+02	1.62300e+03	-0.0141881	601.5
1624	6.02531e+02	1.62400e+03	-0.0141631	602.0
1625	6.03023e+02	1.62500e+03	-0.0141453	602.5
1626	6.03521e+02	1.62600e+03	-0.0141364	603.0
1627	6.04009e+02	1.62700e+03	-0.0141336	603.5
1628	6.04518e+02	1.62800e+03	-0.0141629	604.0
1629	6.05009e+02	1.62900e+03	-0.0141867	604.5
1630	6.05503e+02	1.63000e+03	-0.0142129	605.0
1631	6.06002e+02	1.63100e+03	-0.0142408	605.5
1632	6.06507e+02	1.63200e+03	-0.0142839	606.0
1633	6.06998e+02	1.63300e+03	-0.0143136	606.5
1634	6.07483e+02	1.63400e+03	-0.0143398	607.0
1635	6.07962e+02	1.63500e+03	-0.0143663	607.5
1636	6.08464e+02	1.63600e+03	-0.0143906	608.0
1637	6.08963e+02	1.63700e+03	-0.0144245	608.5
1638	6.09446e+02	1.63800e+03	-0.0144636	609.0
1639	6.09934e+02	1.63900e+03	-0.0145052	609.5
1640	6.10443e+02	1.64000e+03	-0.0145541	610.0
1641	6.10946e+02	1.64100e+03	-0.0145874	610.5
1642	6.11450e+02	1.64200e+03	-0.0146096	611.0
1643	6.11950e+02	1.64300e+03	-0.0146258	611.5
1644	6.12470e+02	1.64400e+03	-0.0146121	612.0
1645	6.12987e+02	1.64500e+03	-0.0146027	612.5
1646	6.13504e+02	1.64600e+03	-0.0145911	613.0
1647	6.13995e+02	1.64700e+03	-0.0145768	613.5
1648	6.14504e+02	1.64800e+03	-0.014531	614.0
1649	6.15013e+02	1.64900e+03	-0.0144903	614.5
1650	6.15521e+02	1.65000e+03	-0.014444	615.0
1651	6.16010e+02	1.65100e+03	-0.0143928	615.5
1652	6.16493e+02	1.65200e+03	-0.0143289	616.0
1653	6.16986e+02	1.65300e+03	-0.0142774	616.5
1654	6.17527e+02	1.65400e+03	-0.0142351	617.0
1655	6.18081e+02	1.65500e+03	-0.0141989	617.5
1656	6.18586e+02	1.65600e+03	-0.0141912	618.0
1657	6.19066e+02	1.65700e+03	-0.0141911	618.5
1658	6.19572e+02	1.65800e+03	-0.0142009	619.0
1659	6.20064e+02	1.65900e+03	-0.0142172	619.5
1660	6.20563e+02	1.66000e+03	-0.0142825	620.0
1661	6.21064e+02	1.66100e+03	-0.0143339	620.5
1662	6.21625e+02	1.66200e+03	-0.0143915	621.0
1663	6.22188e+02	1.66300e+03	-0.0144544	621.5
1664	6.22739e+02	1.66400e+03	-0.0145246	622.0
1665	6.23338e+02	1.66500e+03	-0.0145772	622.5
1666	6.23896e+02	1.66600e+03	-0.0146144	623.0
1667	6.24503e+02	1.66700e+03	-0.0146416	623.5
1668	6.25355e+02	1.66800e+03	-0.0146288	624.0
1669	6.26194e+02	1.66900e+03	-0.01462	624.5
1670	6.26805e+02	1.67000e+03	-0.0146111	625.0
1671	6.27263e+02	1.67100e+03	-0.0146024	625.5
1672	6.27606e+02	1.67200e+03	-0.0145763	626.0
1673	6.28056e+02	1.67300e+03	-0.0145757	626.5
1674	6.28449e+02	1.67400e+03	-0.0145847	627.0
1675	6.28856e+02	1.67500e+03	-0.0145978	627.5
1676	6.29268e+02	1.67600e+03	-0.0146461	628.0
1677	6.29704e+02	1.67700e+03	-0.0146774	628.5
1678	6.30120e+02	1.67800e+03	-0.0147102	629.0
1679	6.30551e+02	1.67900e+03	-0.0147475	629.5
1680	6.31016e+02	1.68000e+03	-0.0147863	630.0
1681	6.31453e+02	1.68100e+03	-0.0148206	630.5
1682	6.31892e+02	1.68200e+03	-0.0148467	631.0
1683	6.32351e+02	1.68300e+03	-0.0148657	631.5
1684	6.32824e+02	1.68400e+03	-0.0148654	632.0
1685	6.33295e+02	1.68500e+03	-0.0148574	632.5
1686	6.33775e+02	1.68600e+03	-0.0148412	633.0
1687	6.34238e+02	1.68700e+03	-0.014821	633.5
1688	6.34719e+02	1.68800e+03	-0.014768	634.0
1689	6.35203e+02	1.68900e+03	-0.0147335	634.5
1690	6.35697e+02	1.69000e+03	-0.0147036	635.0
1691	6.36175e+02	1.69100e+03	-0.0146751	635.5
1692	6.36659e+02	1.69200e+03	-0.0146614	636.0
1693	6.37148e+02	1.69300e+03	-0.0146521	636.5
1694	6.37633e+02	1.69400e+03	-0.0146509	637.0
1695	6.38122e+02	1.69500e+03	-0.0146556	637.5
1696	6.38608e+02	1.69600e+03	-0.0146946	638.0
1697	6.39098e+02	1.69700e+03	-0.0147283	638.5
1698	6.39592e+02	1.69800e+03	-0.0147628	639.0
1699	6.40082e+02	1.69900e+03	-0.0147971	639.5
1700	6.40565e+02	1.70000e+03	-0.0148406	640.0
1701	6.41075e+02	1.70100e+03	-0.0148674	640.5
1702	6.41556e+02	1.70200e+03	-0.0148867	641.0
1703	6.42053e+02	1.70300e+03	-0.0149026	641.5
1704	6.42542e+02	1.70400e+03	-0.0148941	642.0
1705	6.43024e+02	1.70500e+03	-0.0148996	642.5
1706	6.43521e+02	1.70600e+03	-0.0149096	643.0
1707	6.44022e+02	1.70700e+03	-0.0149214	643.5
1708	6.44519e+02	1.70800e+03	-0.0149385	644.0
1709	6.45014e+02	1.70900e+03	-0.014955	644.5
1710	6.45501e+02	1.71000e+03	-0.0149708	645.0
1711	6.46004e+02	1.71100e+03	-0.0149862	645.5
1712	6.46497e+02	1.71200e+03	-0.015003	646.0
1713	6.46992e+02	1.71300e+03	-0.0150162	646.5
1714	6.47478e+02	1.71400e+03	-0.01503	647.0
1715	6.47981e+02	1.71500e+03	-0.0150451	647.5
1716	6.48475e+02	1.71600e+03	-0.0150533	648.0
1717	6.48962e+02	1.71700e+03	-0.0150618	648.5
1718	6.49443e+02	1.71800e+03	-0.0150688	649.0
1719	6.49921e+02	1.71900e+03	-0.0150757	649.5
1720	6.50418e+02	1.72000e+03	-0.0150892	650.0
1721	6.50911e+02	1.72100e+03	-0.0151065	650.5
1722	6.51397e+02	1.72200e+03	-0.0151275	651.0
1723	6.51889e+02	1.72300e+03	-0.0151513	651.5
1724	6.52381e+02	1.72400e+03	-0.0151836	652.0
1725	6.52883e+02	1.72500e+03	-0.0152065	652.5
1726	6.53378e+02	1.72600e+03	-0.0152248	653.0
1727	6.53877e+02	1.72700e+03	-0.0152413	653.5
1728	6.54367e+02	1.72800e+03	-0.0152518	654.0
1729	6.54858e+02	1.72900e+03	-0.0152658	654.5
1730	6.55347e+02	1.73000e+03	-0.0152811	655.0
1731	6.55840e+02	1.73100e+03	-0.0152965	655.5
1732	6.56329e+02	1.73200e+03	-0.0153072	656.0
1733	6.56830e+02	1.73300e+03	-0.0153176	656.5
1734	6.57321e+02	1.73400e+03	-0.0153266	657.0
1735	6.57815e+02	1.73500e+03	-0.0153347	657.5
1736	6.58304e+02	1.73600e+03	-0.0153474	658.0
1737	6.58805e+02	1.73700e+03	-0.0153698	658.5
1738	6.59295e+02	1.73800e+03	-0.0154018	659.0
1739	6.59779e+02	1.73900e+03	-0.0154401	659.5
1740	6.60260e+02	1.74000e+03	-0.0155069	660.0
1741	6.60760e+02	1.74100e+03	-0.0155666	660.5
1742	6.61253e+02	1.74200e+03	-0.0156226	661.0
1743	6.61750e+02	1.74300e+03	-0.0156751	661.5
1744	6.62243e+02	1.74400e+03	-0.0157176	662.0
1745	6.62736e+02	1.74500e+03	-0.0157397	662.5
1746	6.63228e+02	1.74600e+03	-0.0157476	663.0
1747	6.63733e+02	1.74700e+03	-0.0157469	663.5
1748	6.64227e+02	1.74800e+03	-0.0156842	664.0
1749	6.64719e+02	1.74900e+03	-0.0156401	664.5
1750	6.65216e+02	1.75000e+03	-0.0155939	665.0
1751	6.65703e+02	1.75100e+03	-0.0155444	665.5
1752	6.66204e+02	1.75200e+03	-0.0154779	666.0
1753	6.66706e+02	1.75300e+03	-0.0154273	666.5
1754	6.67198e+02	1.75400e+03	-0.0153861	667.0
1755	6.67688e+02	1.75500e+03	-0.0153509	667.5
1756	6.68183e+02	1.75600e+03	-0.0153418	668.0
1757	6.68682e+02	1.75700e+03	-0.0153302	668.5
1758	6.69180e+02	1.75800e+03	-0.0153213	669.0
1759	6.69683e+02	1.75900e+03	-0.0153146	669.5
1760	6.70180e+02	1.76000e+03	-0.0153315	670.0
1761	6.70683e+02	1.76100e+03	-0.0153385	670.5
1762	6.71187e+02	1.76200e+03	-0.015347	671.0
1763	6.71682e+02	1.76300e+03	-0.0153592	671.5
1764	6.72188e+02	1.76400e+03	-0.0153828	672.0
1765	6.72689e+02	1.76500e+03	-0.015406	672.5
1766	6.73205e+02	1.76600e+03	-0.0154247	673.0
1767	6.73691e+02	1.76700e+03	-0.0154391	673.5
1768	6.74193e+02	1.76800e+03	-0.0154522	674.0
1769	6.74700e+02	1.76900e+03	-0.0154523	674.5
1770	6.75207e+02	1.77000e+03	-0.0154461	675.0
1771	6.75701e+02	1.77100e+03	-0.0154373	675.5
1772	6.76199e+02	1.77200e+03	-0.0154005	676.0
1773	6.76698e+02	1.77300e+03	-0.0153789	676.5
1774	6.77205e+02	1.77400e+03	-0.0153595	677.0
1775	6.77700e+02	1.77500e+03	-0.015339	677.5
1776	6.78190e+02	1.77600e+03	-0.015322	678.0
1777	6.78686e+02	1.77700e+03	-0.0153059	678.5
1778	6.79193e+02	1.77800e+03	-0.0152936	679.0
1779	6.79689e+02	1.77900e+03	-0.015285	679.5
1780	6.80190e+02	1.78000e+03	-0.0152911	680.0
1781	6.80686e+02	1.78100e+03	-0.0153031	680.5
1782	6.81201e+02	1.78200e+03	-0.0153232	681.0
1783	6.81705e+02	1.78300e+03	-0.0153475	681.5
1784	6.82216e+02	1.78400e+03	-0.0153866	682.0
1785	6.82716e+02	1.78500e+03	-0.0154089	682.5
1786	6.83211e+02	1.78600e+03	-0.0154254	683.0
1787	6.83716e+02	1.78700e+03	-0.0154405	683.5
1788	6.84212e+02	1.78800e+03	-0.0154462	684.0
1789	6.84718e+02	1.78900e+03	-0.0154585	684.5
1790	6.85202e+02	1.79000e+03	-0.0154688	685.0
1791	6.85700e+02	1.79100e+03	-0.015476	685.5
1792	6.86193e+02	1.79200e+03	-0.0154786	686.0
1793	6.86684e+02	1.79300e+03	-0.015478	686.5
1794	6.87165e+02	1.79400e+03	-0.0154766	687.0
1795	6.87357e+02	1.79500e+03	-0.015475	687.5
1796	6.87552e+02	1.79600e+03	-0.0154663	688.0
1797	6.87867e+02	1.79700e+03	-0.0154678	688.5
1798	6.88234e+02	1.79800e+03	-0.0154728	689.0
1799	6.88602e+02	1.79900e+03	-0.0154786	689.5
1800	6.88981e+02	1.80000e+03	-0.0154887	690.0
1801	6.89343e+02	1.80100e+03	-0.0154935	690.5
1802	6.89693e+02	1.80200e+03	-0.0154998	691.0
1803	6.90052e+02	1.80300e+03	-0.0155097	691.5
1804	6.90385e+02	1.80400e+03	-0.0155211	692.0
1805	6.90712e+02	1.80500e+03	-0.0155408	692.5
1806	6.91039e+02	1.80600e+03	-0.0155655	693.0
1807	6.91352e+02	1.80700e+03	-0.0155925	693.5
1808	6.91661e+02	1.80800e+03	-0.0156335	694.0
1809	6.92000e+02	1.80900e+03	-0.0156619	694.5
1810	6.92411e+02	1.81000e+03	-0.0156831	695.0
1811	6.92801e+02	1.81100e+03	-0.0156998	695.5
1812	6.93100e+02	1.81200e+03	-0.0156987	696.0
1813	6.93271e+02	1.81300e+03	-0.0156989	696.5
1814	6.93380e+02	1.81400e+03	-0.0156963	697.0
1815	6.93599e+02	1.81500e+03	-0.0156912	697.5
1816	6.93761e+02	1.81600e+03	-0.0156665	698.0
1817	6.93939e+02	1.81700e+03	-0.0156474	698.5
1818	6.94124e+02	1.81800e+03	-0.0156251	699.0
1819	6.94309e+02	1.81900e+03	-0.0155986	699.5
1820	6.94483e+02	1.82000e+03	-0.0155632	700.0
1821	6.94659e+02	1.82100e+03	-0.0155331	700.0
1822	6.94832e+02	1.82200e+03	-0.0155074	700.0
1823	6.94996e+02	1.82300e+03	-0.015485	700.0
1824	6.95153e+02	1.82400e+03	-0.0154658	700.0
1825	6.95319e+02	1.82500e+03	-0.015449	700.0
1826	6.95483e+02	1.82600e+03	-0.0154351	700.0
1827	6.95629e+02	1.82700e+03	-0.0154227	700.0
1828	6.95772e+02	1.82800e+03	-0.0154279	700.0
1829	6.95922e+02	1.82900e+03	-0.0154324	700.0
1830	6.96064e+02	1.83000e+03	-0.0154444	700.0
1831	6.96194e+02	1.83100e+03	-0.0154633	700.0
1832	6.96312e+02	1.83200e+03	-0.0155011	700.0
1833	6.96457e+02	1.83300e+03	-0.0155318	700.0
1834	6.96588e+02	1.83400e+03	-0.0155609	700.0
1835	6.96714e+02	1.83500e+03	-0.0155899	700.0
1836	6.96821e+02	1.83600e+03	-0.0156242	700.0
1837	6.96930e+02	1.83700e+03	-0.0156514	700.0
1838	6.97047e+02	1.83800e+03	-0.0156777	700.0
1839	6.97165e+02	1.83900e+03	-0.0157047	700.0
1840	6.97274e+02	1.84000e+03	-0.0157183	700.0
1841	6.97375e+02	1.84100e+03	-0.015732	700.0
1842	6.97478e+02	1.84200e+03	-0.0157395	700.0
1843	6.97576e+02	1.84300e+03	-0.0157419	700.0
1844	6.97658e+02	1.84400e+03	-0.0157269	700.0
1845	6.97754e+02	1.84500e+03	-0.0157106	700.0
1846	6.97834e+02	1.84600e+03	-0.0156928	700.0
1847	6.97925e+02	1.84700e+03	-0.0156749	700.0
1848	6.98023e+02	1.84800e+03	-0.0156426	700.0
1849	6.98095e+02	1.84900e+03	-0.0156257	700.0
1850	6.98167e+02	1.85000e+03	-0.015615	700.0
1851	6.98238e+02	1.85100e+03	-0.0156058	700.0
1852	6.98298e+02	1.85200e+03	-0.0156125	700.0
1853	6.98371e+02	1.85300e+03	-0.0156122	700.0
1854	6.98445e+02	1.85400e+03	-0.015612	700.0
1855	6.98525e+02	1.85500e+03	-0.0156138	700.0
1856	6.98574e+02	1.85600e+03	-0.0156246	700.0
1857	6.98643e+02	1.85700e+03	-0.0156342	700.0
1858	6.98714e+02	1.85800e+03	-0.0156425	700.0
1859	6.98773e+02	1.85900e+03	-0.0156501	700.0
1860	6.98830e+02	1.86000e+03	-0.0156604	700.0
1861	6.98878e+02	1.86100e+03	-0.0156654	700.0
1862	6.98944e+02	1.86200e+03	-0.0156703	700.0
1863	6.99001e+02	1.86300e+03	-0.0156773	700.0
1864	6.99049e+02	1.86400e+03	-0.0156872	700.0
1865	6.99094e+02	1.86500e+03	-0.0157055	700.0
1866	6.99139e+02	1.86600e+03	-0.0157271	700.0
1867	6.99196e+02	1.86700e+03	-0.0157495	700.0
1868	6.99242e+02	1.86800e+03	-0.0157874	700.0
1869	6.99282e+02	1.86900e+03	-0.0158138	700.0
1870	6.99330e+02	1.87000e+03	-0.0158365	700.0
1871	6.99378e+02	1.87100e+03	-0.015858	700.0
1872	6.99409e+02	1.87200e+03	-0.01587	700.0
1873	6.99460e+02	1.87300e+03	-0.0158845	700.0
1874	6.99498e+02	1.87400e+03	-0.0158976	700.0
1875	6.99531e+02	1.87500e+03	-0.0159089	700.0
1876	6.99575e+02	1.87600e+03	-0.0159116	700.0
1877	6.99607e+02	1.87700e+03	-0.0159134	700.0
1878	6.99642e+02	1.87800e+03	-0.0159123	700.0
1879	6.99677e+02	1.87900e+03	-0.0159097	700.0
1880	6.99717e+02	1.88000e+03	-0.0158992	700.0
1881	6.99747e+02	1.88100e+03	-0.0158931	700.0
1882	6.99781e+02	1.88200e+03	-0.0158862	700.0
1883	6.99818e+02	1.88300e+03	-0.0158781	700.0
1884	6.99854e+02	1.88400e+03	-0.0158699	700.0
1885	6.99886e+02	1.88500e+03	-0.0158613	700.0
1886	6.99916e+02	1.88600e+03	-0.0158527	700.0
1887	6.99937e+02	1.88700e+03	-0.0158441	700.0
1888	6.99968e+02	1.88800e+03	-0.0158369	700.0
1889	6.99997e+02	1.88900e+03	-0.0158357	700.0
1890	7.00036e+02	1.89000e+03	-0.0158394	700.0
1891	7.00049e+02	1.89100e+03	-0.0158445	700.0
1892	7.00076e+02	1.89200e+03	-0.0158582	700.0
1893	7.00114e+02	1.89300e+03	-0.015866	700.0
1894	7.00140e+02	1.89400e+03	-0.0158681	700.0
1895	7.00161e+02	1.89500e+03	-0.0158663	700.0
1896	7.00190e+02	1.89600e+03	-0.0158598	700.0
1897	7.00213e+02	1.89700e+03	-0.0158535	700.0
1898	7.00236e+02	1.89800e+03	-0.0158468	700.0
1899	7.00255e+02	1.89900e+03	-0.0158399	700.0
1900	7.00285e+02	1.90000e+03	-0.0158272	700.0
1901	7.00310e+02	1.90100e+03	-0.0158197	700.0
1902	7.00331e+02	1.90200e+03	-0.015814	700.0
1903	7.00345e+02	1.90300e+03	-0.015809	700.0
1904	7.00358e+02	1.90400e+03	-0.0158096	700.0
1905	7.00392e+02	1.90500e+03	-0.0158081	700.0
1906	7.00409e+02	1.90600e+03	-0.0158067	700.0
1907	7.00424e+02	1.90700e+03	-0.0158055	700.0
1908	7.00456e+02	1.90800e+03	-0.0158028	700.0
1909	7.00460e+02	1.90900e+03	-0.0157954	700.0
1910	7.00479e+02	1.91000e+03	-0.015785	700.0
1911	7.00497e+02	1.91100e+03	-0.015774	700.0
1912	7.00526e+02	1.91200e+03	-0.0157581	700.0
1913	7.00533e+02	1.91300e+03	-0.0157477	700.0
1914	7.00553e+02	1.91400e+03	-0.0157427	700.0
1915	7.00565e+02	1.91500e+03	-0.0157425	700.0
1916	7.00580e+02	1.91600e+03	-0.0157583	700.0
1917	7.00603e+02	1.91700e+03	-0.0157743	700.0
1918	7.00612e+02	1.91800e+03	-0.0157927	700.0
1919	7.00629e+02	1.91900e+03	-0.015813	700.0
1920	7.00645e+02	1.92000e+03	-0.015851	700.0
1921	7.00660e+02	1.92100e+03	-0.0158783	700.0
1922	7.00673e+02	1.92200e+03	-0.0159026	700.0
1923	7.00690e+02	1.92300e+03	-0.0159258	700.0
1924	7.00712e+02	1.92400e+03	-0.0159408	700.0
1925	7.00711e+02	1.92500e+03	-0.0159542	700.0
1926	7.00726e+02	1.92600e+03	-0.0159606	700.0
1927	7.00739e+02	1.92700e+03	-0.0159615	700.0
1928	7.00749e+02	1.92800e+03	-0.0159395	700.0
1929	7.00760e+02	1.92900e+03	-0.0159181	700.0
1930	7.00772e+02	1.93000e+03	-0.0158961	700.0
1931	7.00786e+02	1.93100e+03	-0.0158752	700.0
1932	7.00798e+02	1.93200e+03	-0.0158464	700.0
1933	7.00805e+02	1.93300e+03	-0.0158325	700.0
1934	7.00818e+02	1.93400e+03	-0.0158246	700.0
1935	7.00832e+02	1.93500e+03	-0.0158195	700.0
1936	7.00843e+02	1.93600e+03	-0.0158396	700.0
1937	7.00843e+02	1.93700e+03	-0.0158487	700.0
1938	7.00862e+02	1.93800e+03	-0.015857	700.0
1939	7.00864e+02	1.93900e+03	-0.015866	700.0
1940	7.00875e+02	1.94000e+03	-0.015878	700.0
1941	7.00887e+02	1.94100e+03	-0.0158889	700.0
1942	7.00899e+02	1.94200e+03	-0.0158999	700.0
1943	7.00918e+02	1.94300e+03	-0.0159111	700.0
1944	7.00912e+02	1.94400e+03	-0.0159227	700.0
1945	7.00916e+02	1.94500e+03	-0.015931	700.0
1946	7.00938e+02	1.94600e+03	-0.0159346	700.0
1947	7.00947e+02	1.94700e+03	-0.0159358	700.0
1948	7.00943e+02	1.94800e+03	-0.0159312	700.0
1949	7.00957e+02	1.94900e+03	-0.0159281	700.0
1950	7.00971e+02	1.95000e+03	-0.0159249	700.0
1951	7.00975e+02	1.95100e+03	-0.0159216	700.0
1952	7.00981e+02	1.95200e+03	-0.0159137	700.0
1953	7.00995e+02	1.95300e+03	-0.0159083	700.0
1954	7.01000e+02	1.95400e+03	-0.0159029	700.0
1955	7.01002e+02	1.95500e+03	-0.0158972	700.0
1956	7.01003e+02	1.95600e+03	-0.015891	700.0
1957	7.01004e+02	1.95700e+03	-0.0158852	700.0
1958	7.01024e+02	1.95800e+03	-0.0158832	700.0
1959	7.01029e+02	1.95900e+03	-0.015884	700.0
1960	7.01029e+02	1.96000e+03	-0.0158873	700.0
1961	7.01039e+02	1.96100e+03	-0.015892	700.0
1962	7.01048e+02	1.96200e+03	-0.0158983	700.0
1963	7.01049e+02	1.96300e+03	-0.0159058	700.0
1964	7.01054e+02	1.96400e+03	-0.0159245	700.0
1965	7.01058e+02	1.96500e+03	-0.0159414	700.0
1966	7.01062e+02	1.96600e+03	-0.0159599	700.0
1967	7.01077e+02	1.96700e+03	-0.0159799	700.0
1968	7.01076e+02	1.96800e+03	-0.0160046	700.0
1969	7.01081e+02	1.96900e+03	-0.0160218	700.0
1970	7.01084e+02	1.97000e+03	-0.0160348	700.0
1971	7.01096e+02	1.97100e+03	-0.0160467	700.0
1972	7.01104e+02	1.97200e+03	-0.0160518	700.0
1973	7.01098e+02	1.97300e+03	-0.0160595	700.0
1974	7.01109e+02	1.97400e+03	-0.0160677	700.0
1975	7.01107e+02	1.97500e+03	-0.0160761	700.0
1976	7.01116e+02	1.97600e+03	-0.0160828	700.0
1977	7.01127e+02	1.97700e+03	-0.0160912	700.0
1978	7.01130e+02	1.97800e+03	-0.0160999	700.0
1979	7.01129e+02	1.97900e+03	-0.0161085	700.0
1980	7.01132e+02	1.98000e+03	-0.0161182	700.0
1981	7.01134e+02	1.98100e+03	-0.0161267	700.0
1982	7.01141e+02	1.98200e+03	-0.0161369	700.0
1983	7.01146e+02	1.98300e+03	-0.0161503	700.0
1984	7.01150e+02	1.98400e+03	-0.0161727	700.0
1985	7.01151e+02	1.98500e+03	-0.0161973	700.0
1986	7.01158e+02	1.98600e+03	-0.016223	700.0
1987	7.01166e+02	1.98700e+03	-0.0162492	700.0
1988	7.01168e+02	1.98800e+03	-0.0162864	700.0
1989	7.01170e+02	1.98900e+03	-0.0163132	700.0
1990	7.01170e+02	1.99000e+03	-0.016336	700.0
1991	7.01185e+02	1.99100e+03	-0.0163568	700.0
1992	7.01178e+02	1.99200e+03	-0.0163642	700.0
1993	7.01188e+02	1.99300e+03	-0.016375	700.0
1994	7.01193e+02	1.99400e+03	-0.0163846	700.0
1995	7.01195e+02	1.99500e+03	-0.0163929	700.0
1996	7.01191e+02	1.99600e+03	-0.0163937	700.0
1997	7.01199e+02	1.99700e+03	-0.0163969	700.0
1998	7.01196e+02	1.99800e+03	-0.0164	700.0
1999	7.01201e+02	1.99900e+03	-0.0164025	700.0
2000	7.01206e+02	2.00000e+03	-0.0164023	700.0
2001	7.01206e+02	2.00100e+03	-0.0164031	700.0
2002	7.01211e+02	2.00200e+03	-0.0164039	700.0
2003	7.01214e+02	2.00300e+03	-0.0164046	700.0
2004	7.01214e+02	2.00400e+03	-0.0164046	700.0
2005	7.01221e+02	2.00500e+03	-0.0164054	700.0
2006	7.01221e+02	2.00600e+03	-0.0164071	700.0
2007	7.01220e+02	2.00700e+03	-0.0164093	700.0
2008	7.01224e+02	2.00800e+03	-0.0164143	700.0
2009	7.01230e+02	2.00900e+03	-0.0164196	700.0
2010	7.01234e+02	2.01000e+03	-0.0164251	700.0
2011	7.01234e+02	2.01100e+03	-0.0164304	700.0
2012	7.01241e+02	2.01200e+03	-0.0164304	700.0
2013	7.01248e+02	2.01300e+03	-0.016425	700.0
2014	7.01248e+02	2.01400e+03	-0.0164178	700.0
2015	7.01258e+02	2.01500e+03	-0.0164101	700.0
2016	7.01246e+02	2.01600e+03	-0.0163915	700.0
2017	7.01250e+02	2.01700e+03	-0.016381	700.0
2018	7.01246e+02	2.01800e+03	-0.0163736	700.0
2019	7.01256e+02	2.01900e+03	-0.0163675	700.0
2020	7.01247e+02	2.02000e+03	-0.0163715	700.0
2021	7.01255e+02	2.02100e+03	-0.0163752	700.0
2022	7.01254e+02	2.02200e+03	-0.0163817	700.0
2023	7.01261e+02	2.02300e+03	-0.0163904	700.0
2024	7.01264e+02	2.02400e+03	-0.0164114	700.0
2025	7.01265e+02	2.02500e+03	-0.0164294	700.0
2026	7.01271e+02	2.02600e+03	-0.016448	700.0
2027	7.01272e+02	2.02700e+03	-0.0164674	700.0
2028	7.01270e+02	2.02800e+03	-0.0164862	700.0
2029	7.01275e+02	2.02900e+03	-0.0164975	700.0
2030	7.01277e+02	2.03000e+03	-0.0165052	700.0
2031	7.01275e+02	2.03100e+03	-0.0165116	700.0
2032	7.01273e+02	2.03200e+03	-0.0165054	700.0
2033	7.01275e+02	2.03300e+03	-0.0165047	700.0
2034	7.01277e+02	2.03400e+03	-0.0165049	700.0
2035	7.01290e+02	2.03500e+03	-0.0165048	700.0
2036	7.01287e+02	2.03600e+03	-0.0165037	700.0
2037	7.01291e+02	2.03700e+03	-0.0165033	700.0
2038	7.01292e+02	2.03800e+03	-0.0165034	700.0
2039	7.01288e+02	2.03900e+03	-0.0165037	700.0
2040	7.01291e+02	2.04000e+03	-0.0165063	700.0
2041	7.01290e+02	2.04100e+03	-0.0165095	700.0
2042	7.01289e+02	2.04200e+03	-0.0165137	700.0
2043	7.01291e+02	2.04300e+03	-0.0165187	700.0
2044	7.01297e+02	2.04400e+03	-0.0165226	700.0
2045	7.01294e+02	2.04500e+03	-0.0165222	700.0
2046	7.01302e+02	2.04600e+03	-0.0165207	700.0
2047	7.01300e+02	2.04700e+03	-0.0165193	700.0
2048	7.01305e+02	2.04800e+03	-0.016514	700.0
2049	7.01303e+02	2.04900e+03	-0.0165132	700.0
2050	7.01295e+02	2.05000e+03	-0.0165148	700.0
2051	7.01297e+02	2.05100e+03	-0.0165176	700.0
2052	7.01307e+02	2.05200e+03	-0.0165274	700.0
2053	7.01305e+02	2.05300e+03	-0.0165356	700.0
2054	7.01307e+02	2.05400e+03	-0.0165442	700.0
2055	7.01312e+02	2.05500e+03	-0.0165532	700.0
2056	7.01320e+02	2.05600e+03	-0.0165647	700.0
2057	7.01312e+02	2.05700e+03	-0.0165735	700.0
2058	7.01316e+02	2.05800e+03	-0.016581	700.0
2059	7.01310e+02	2.05900e+03	-0.016588	700.0
2060	7.01313e+02	2.06000e+03	-0.0165909	700.0
2061	7.01318e+02	2.06100e+03	-0.0165947	700.0
2062	7.01318e+02	2.06200e+03	-0.0165981	700.0
2063	7.01318e+02	2.06300e+03	-0.0166012	700.0
2064	7.01320e+02	2.06400e+03	-0.0166028	700.0
2065	7.01317e+02	2.06500e+03	-0.0166063	700.0
2066	7.01319e+02	2.06600e+03	-0.0166109	700.0
2067	7.01329e+02	2.06700e+03	-0.016616	700.0
2068	7.01332e+02	2.06800e+03	-0.0166251	700.0
2069	7.01320e+02	2.06900e+03	-0.0166345	700.0
2070	7.01330e+02	2.07000e+03	-0.0166452	700.0
2071	7.01336e+02	2.07100e+03	-0.016657	700.0
2072	7.01330e+02	2.07200e+03	-0.0166752	700.0
2073	7.01326e+02	2.07300e+03	-0.0166928	700.0
2074	7.01330e+02	2.07400e+03	-0.016712	700.0
2075	7.01333e+02	2.07500e+03	-0.0167327	700.0
2076	7.01338e+02	2.07600e+03	-0.0167609	700.0
2077	7.01337e+02	2.07700e+03	-0.0167875	700.0
2078	7.01332e+02	2.07800e+03	-0.0168136	700.0
2079	7.01335e+02	2.07900e+03	-0.0168387	700.0
2080	7.01331e+02	2.08000e+03	-0.0168566	700.0
2081	7.01336e+02	2.08100e+03	-0.0168674	700.0
2082	7.01340e+02	2.08200e+03	-0.0168734	700.0
2083	7.01345e+02	2.08300e+03	-0.0168764	700.0
2084	7.01339e+02	2.08400e+03	-0.0168565	700.0
2085	7.01336e+02	2.08500e+03	-0.0168455	700.0
2086	7.01339e+02	2.08600e+03	-0.0168353	700.0
2087	7.01340e+02	2.08700e+03	-0.0168249	700.0
2088	7.01340e+02	2.08800e+03	-0.0168127	700.0
2089	7.01345e+02	2.08900e+03	-0.0168046	700.0
2090	7.01349e+02	2.09000e+03	-0.0167987	700.0
2091	7.01344e+02	2.09100e+03	-0.0167939	700.0
2092	7.01340e+02	2.09200e+03	-0.0168044	700.0
2093	7.01343e+02	2.09300e+03	-0.0168169	700.0
2094	7.01345e+02	2.09400e+03	-0.016831	700.0
2095	7.01339e+02	2.09500e+03	-0.0168443	700.0
2096	7.01340e+02	2.09600e+03	-0.0168655	700.0
2097	7.01348e+02	2.09700e+03	-0.0168782	700.0
2098	7.01344e+02	2.09800e+03	-0.0168879	700.0
2099	7.01335e+02	2.09900e+03	-0.0168962	700.0
2100	7.01343e+02	2.10000e+03	-0.016893	700.0
2101	7.01346e+02	2.10100e+03	-0.0168965	700.0
2102	7.01336e+02	2.10200e+03	-0.0169031	700.0
2103	7.01347e+02	2.10300e+03	-0.0169114	700.0
2104	7.01340e+02	2.10400e+03	-0.0169254	700.0
2105	7.01346e+02	2.10500e+03	-0.0169374	700.0
2106	7.01341e+02	2.10600e+03	-0.0169485	700.0
2107	7.01343e+02	2.10700e+03	-0.0169601	700.0
2108	7.01338e+02	2.10800e+03	-0.0169757	700.0
2109	7.01346e+02	2.10900e+03	-0.0169872	700.0
2110	7.01343e+02	2.11000e+03	-0.0169971	700.0
2111	7.01345e+02	2.11100e+03	-0.0170062	700.0
2112	7.01349e+02	2.11200e+03	-0.017008	700.0
2113	7.01346e+02	2.11300e+03	-0.0170111	700.0
2114	7.01344e+02	2.11400e+03	-0.0170134	700.0
2115	7.01343e+02	2.11500e+03	-0.017015	700.0
2116	7.01344e+02	2.11600e+03	-0.017012	700.0
2117	7.01353e+02	2.11700e+03	-0.0170113	700.0
2118	7.01353e+02	2.11800e+03	-0.0170115	700.0
2119	7.01339e+02	2.11900e+03	-0.0170122	700.0
2120	7.01350e+02	2.12000e+03	-0.0170115	700.0
2121	7.01352e+02	2.12100e+03	-0.0170078	700.0
2122	7.01345e+02	2.12200e+03	-0.0170027	700.0
2123	7.01347e+02	2.12300e+03	-0.0169978	700.0
2124	7.01347e+02	2.12400e+03	-0.016992	700.0
2125	7.01345e+02	2.12500e+03	-0.0169894	700.0
2126	7.01348e+02	2.12600e+03	-0.0169895	700.0
2127	7.01341e+02	2.12700e+03	-0.0169917	700.0
2128	7.01344e+02	2.12800e+03	-0.0170038	700.0
2129	7.01341e+02	2.12900e+03	-0.0170154	700.0
2130	7.01344e+02	2.13000e+03	-0.0170275	700.0
2131	7.01348e+02	2.13100e+03	-0.0170398	700.0
2132	7.01344e+02	2.13200e+03	-0.0170563	700.0
2133	7.01342e+02	2.13300e+03	-0.0170655	700.0
2134	7.01343e+02	2.13400e+03	-0.0170706	700.0
2135	7.01347e+02	2.13500e+03	-0.0170735	700.0
2136	7.01345e+02	2.13600e+03	-0.0170619	700.0
2137	7.01344e+02	2.13700e+03	-0.0170517	700.0
2138	7.01346e+02	2.13800e+03	-0.0170378	700.0
2139	7.01342e+02	2.13900e+03	-0.0170216	700.0
2140	7.01339e+02	2.14000e+03	-0.0170008	700.0
2141	7.01344e+02	2.14100e+03	-0.0169885	700.0
2142	7.01354e+02	2.14200e+03	-0.0169811	700.0
2143	7.01347e+02	2.14300e+03	-0.0169768	700.0
2144	7.01350e+02	2.14400e+03	-0.0169889	700.0
2145	7.01350e+02	2.14500e+03	-0.0169984	700.0
2146	7.01342e+02	2.14600e+03	-0.0170082	700.0
2147	7.01345e+02	2.14700e+03	-0.0170191	700.0
2148	7.01339e+02	2.14800e+03	-0.0170448	700.0
2149	7.01350e+02	2.14900e+03	-0.017066	700.0
2150	7.01349e+02	2.15000e+03	-0.0170897	700.0
2151	7.01345e+02	2.15100e+03	-0.0171165	700.0
2152	7.01349e+02	2.15200e+03	-0.0171443	700.0
2153	7.01348e+02	2.15300e+03	-0.0171675	700.0
2154	7.01346e+02	2.15400e+03	-0.0171881	700.0
2155	7.01344e+02	2.15500e+03	-0.017207	700.0
2156	7.01344e+02	2.15600e+03	-0.017219	700.0
2157	7.01348e+02	2.15700e+03	-0.017231	700.0
2158	7.01346e+02	2.15800e+03	-0.0172404	700.0
2159	7.01347e+02	2.15900e+03	-0.0172477	700.0
2160	7.01348e+02	2.16000e+03	-0.0172434	700.0
2161	7.01348e+02	2.16100e+03	-0.0172402	700.0
2162	7.01341e+02	2.16200e+03	-0.0172349	700.0
2163	7.01344e+02	2.16300e+03	-0.0172277	700.0
2164	7.01340e+02	2.16400e+03	-0.0172098	700.0
2165	7.01344e+02	2.16500e+03	-0.0171959	700.0
2166	7.01342e+02	2.16600e+03	-0.0171824	700.0
2167	7.01339e+02	2.16700e+03	-0.0171689	700.0
2168	7.01349e+02	2.16800e+03	-0.0171549	700.0
2169	7.01338e+02	2.16900e+03	-0.0171425	700.0
2170	7.01344e+02	2.17000e+03	-0.0171285	700.0
2171	7.01355e+02	2.17100e+03	-0.0171125	700.0
2172	7.01349e+02	2.17200e+03	-0.0171013	700.0
2173	7.01337e+02	2.17300e+03	-0.0170918	700.0
2174	7.01338e+02	2.17400e+03	-0.0170856	700.0
2175	7.01347e+02	2.17500e+03	-0.0170818	700.0
2176	7.01342e+02	2.17600e+03	-0.0170886	700.0
2177	7.01332e+02	2.17700e+03	-0.017097	700.0
2178	7.01331e+02	2.17800e+03	-0.0171083	700.0
2179	7.01343e+02	2.17900e+03	-0.0171213	700.0
2180	7.01340e+02	2.18000e+03	-0.0171412	700.0
2181	7.01339e+02	2.18100e+03	-0.0171518	700.0
2182	7.01339e+02	2.18200e+03	-0.0171605	700.0
2183	7.01330e+02	2.18300e+03	-0.0171689	700.0
2184	7.01335e+02	2.18400e+03	-0.0171699	700.0
2185	7.01333e+02	2.18500e+03	-0.0171802	700.0
2186	7.01336e+02	2.18600e+03	-0.0171948	700.0
2187	7.01324e+02	2.18700e+03	-0.0172102	700.0
2188	7.01329e+02	2.18800e+03	-0.0172309	700.0
2189	7.01341e+02	2.18900e+03	-0.0172469	700.0
2190	7.01333e+02	2.19000e+03	-0.0172609	700.0
2191	7.01321e+02	2.19100e+03	-0.0172736	700.0
2192	7.01322e+02	2.19200e+03	-0.0172813	700.0
2193	7.01332e+02	2.19300e+03	-0.0172889	700.0
2194	7.01328e+02	2.19400e+03	-0.0172952	700.0
2195	7.01330e+02	2.19500e+03	-0.0173006	700.0
2196	7.01332e+02	2.19600e+03	-0.0173	700.0
2197	7.01327e+02	2.19700e+03	-0.0173016	700.0
2198	7.01330e+02	2.19800e+03	-0.0173031	700.0
2199	7.01332e+02	2.19900e+03	-0.0173044	700.0
2200	7.01327e+02	2.20000e+03	-0.0173041	700.0
2201	7.01332e+02	2.20100e+03	-0.0173044	700.0
2202	7.01323e+02	2.20200e+03	-0.0173047	700.0
2203	7.01324e+02	2.20300e+03	-0.0173049	700.0
2204	7.01330e+02	2.20400e+03	-0.0173049	700.0
2205	7.01325e+02	2.20500e+03	-0.0173049	700.0
2206	7.01331e+02	2.20600e+03	-0.017305	700.0
2207	7.01329e+02	2.20700e+03	-0.017305	700.0
2208	7.01323e+02	2.20800e+03	-0.0173097	700.0
2209	7.01312e+02	2.20900e+03	-0.0173181	700.0
2210	7.01321e+02	2.21000e+03	-0.0173277	700.0
2211	7.01325e+02	2.21100e+03	-0.0173359	700.0
2212	7.01332e+02	2.21200e+03	-0.0173425	700.0
2213	7.01327e+02	2.21300e+03	-0.0173394	700.0
2214	7.01334e+02	2.21400e+03	-0.0173293	700.0
2215	7.01330e+02	2.21500e+03	-0.0173153	700.0
2216	7.01324e+02	2.21600e+03	-0.0172823	700.0
2217	7.01328e+02	2.21700e+03	-0.0172608	700.0
2218	7.01337e+02	2.21800e+03	-0.0172432	700.0
2219	7.01340e+02	2.21900e+03	-0.0172274	700.0
2220	7.01327e+02	2.22000e+03	-0.017216	700.0
2221	7.01332e+02	2.22100e+03	-0.0172069	700.0
2222	7.01338e+02	2.22200e+03	-0.0172002	700.0
2223	7.01329e+02	2.22300e+03	-0.0171951	700.0
2224	7.01316e+02	2.22400e+03	-0.0172009	700.0
2225	7.01331e+02	2.22500e+03	-0.0172048	700.0
2226	7.01325e+02	2.22600e+03	-0.0172132	700.0
2227	7.01319e+02	2.22700e+03	-0.0172247	700.0
2228	7.01328e+02	2.22800e+03	-0.0172435	700.0
2229	7.01326e+02	2.22900e+03	-0.0172601	700.0
2230	7.01326e+02	2.23000e+03	-0.0172749	700.0
2231	7.01325e+02	2.23100e+03	-0.0172869	700.0
2232	7.01317e+02	2.23200e+03	-0.0172958	700.0
2233	7.01325e+02	2.23300e+03	-0.0173017	700.0
2234	7.01320e+02	2.23400e+03	-0.0173066	700.0
2235	7.01325e+02	2.23500e+03	-0.0173112	700.0
2236	7.01323e+02	2.23600e+03	-0.0173066	700.0
2237	7.01317e+02	2.23700e+03	-0.0173103	700.0
2238	7.01319e+02	2.23800e+03	-0.0173174	700.0
2239	7.01330e+02	2.23900e+03	-0.0173262	700.0
2240	7.01315e+02	2.24000e+03	-0.0173454	700.0
2241	7.01310e+02	2.24100e+03	-0.0173619	700.0
2242	7.01318e+02	2.24200e+03	-0.0173786	700.0
2243	7.01312e+02	2.24300e+03	-0.0173959	700.0
2244	7.01305e+02	2.24400e+03	-0.0174169	700.0
2245	7.01319e+02	2.24500e+03	-0.0174336	700.0
2246	7.01312e+02	2.24600e+03	-0.0174453	700.0
2247	7.01312e+02	2.24700e+03	-0.0174536	700.0
2248	7.01309e+02	2.24800e+03	-0.0174561	700.0
2249	7.01316e+02	2.24900e+03	-0.0174609	700.0
2250	7.01308e+02	2.25000e+03	-0.0174659	700.0
2251	7.01309e+02	2.25100e+03	-0.0174709	700.0
2252	7.01311e+02	2.25200e+03	-0.0174724	700.0
2253	7.01314e+02	2.25300e+03	-0.0174768	700.0
2254	7.01300e+02	2.25400e+03	-0.0174827	700.0
2255	7.01305e+02	2.25500e+03	-0.0174893	700.0
2256	7.01308e+02	2.25600e+03	-0.0175	700.0
2257	7.01311e+02	2.25700e+03	-0.0175098	700.0
2258	7.01313e+02	2.25800e+03	-0.0175196	700.0
2259	7.01309e+02	2.25900e+03	-0.0175294	700.0
2260	7.01305e+02	2.26000e+03	-0.0175391	700.0
2261	7.01305e+02	2.26100e+03	-0.0175463	700.0
2262	7.01309e+02	2.26200e+03	-0.0175516	700.0
2263	7.01305e+02	2.26300e+03	-0.0175556	700.0
2264	7.01301e+02	2.26400e+03	-0.0175518	700.0
2265	7.01310e+02	2.26500e+03	-0.0175492	700.0
2266	7.01312e+02	2.26600e+03	-0.0175457	700.0
2267	7.01310e+02	2.26700e+03	-0.0175416	700.0
2268	7.01307e+02	2.26800e+03	-0.0175343	700.0
2269	7.01305e+02	2.26900e+03	-0.017531	700.0
2270	7.01305e+02	2.27000e+03	-0.0175283	700.0
2271	7.01300e+02	2.27100e+03	-0.0175245	700.0
2272	7.01296e+02	2.27200e+03	-0.0175255	700.0
2273	7.01304e+02	2.27300e+03	-0.0175279	700.0
2274	7.01301e+02	2.27400e+03	-0.0175334	700.0
2275	7.01308e+02	2.27500e+03	-0.0175412	700.0
2276	7.01307e+02	2.27600e+03	-0.0175571	700.0
2277	7.01309e+02	2.27700e+03	-0.0175726	700.0
2278	7.01308e+02	2.27800e+03	-0.0175893	700.0
2279	7.01301e+02	2.27900e+03	-0.0176066	700.0
2280	7.01303e+02	2.28000e+03	-0.0176289	700.0
2281	7.01302e+02	2.28100e+03	-0.0176451	700.0
2282	7.01305e+02	2.28200e+03	-0.0176579	700.0
2283	7.01298e+02	2.28300e+03	-0.0176688	700.0
2284	7.01297e+02	2.28400e+03	-0.0176686	700.0
2285	7.01302e+02	2.28500e+03	-0.0176698	700.0
2286	7.01302e+02	2.28600e+03	-0.0176693	700.0
2287	7.01304e+02	2.28700e+03	-0.0176673	700.0
2288	7.01294e+02	2.28800e+03	-0.0176574	700.0
2289	7.01293e+02	2.28900e+03	-0.0176522	700.0
2290	7.01297e+02	2.29000e+03	-0.0176487	700.0
2291	7.01297e+02	2.29100e+03	-0.0176459	700.0
2292	7.01294e+02	2.29200e+03	-0.0176474	700.0
2293	7.01292e+02	2.29300e+03	-0.0176498	700.0
2294	7.01290e+02	2.29400e+03	-0.0176535	700.0
2295	7.01287e+02	2.29500e+03	-0.017658	700.0
2296	7.01293e+02	2.29600e+03	-0.017668	700.0
2297	7.01293e+02	2.29700e+03	-0.0176745	700.0
2298	7.01286e+02	2.29800e+03	-0.0176797	700.0
2299	7.01293e+02	2.29900e+03	-0.0176842	700.0
2300	7.01293e+02	2.30000e+03	-0.0176845	700.0
2301	7.01293e+02	2.30100e+03	-0.0176839	700.0
2302	7.01294e+02	2.30200e+03	-0.0176818	700.0
2303	7.01293e+02	2.30300e+03	-0.0176786	700.0
2304	7.01291e+02	2.30400e+03	-0.0176684	700.0
2305	7.01287e+02	2.30500e+03	-0.0176593	700.0
2306	7.01286e+02	2.30600e+03	-0.0176463	700.0
2307	7.01289e+02	2.30700e+03	-0.0176299	700.0
2308	7.01285e+02	2.30800e+03	-0.0176124	700.0
2309	7.01294e+02	2.30900e+03	-0.0176043	700.0
2310	7.01290e+02	2.31000e+03	-0.0176037	700.0
2311	7.01286e+02	2.31100e+03	-0.0176065	700.0
2312	7.01282e+02	2.31200e+03	-0.0176261	700.0
2313	7.01290e+02	2.31300e+03	-0.0176448	700.0
2314	7.01284e+02	2.31400e+03	-0.0176663	700.0
2315	7.01283e+02	2.31500e+03	-0.0176897	700.0
2316	7.01290e+02	2.31600e+03	-0.0177284	700.0
2317	7.01289e+02	2.31700e+03	-0.0177581	700.0
2318	7.01291e+02	2.31800e+03	-0.017785	700.0
2319	7.01285e+02	2.31900e+03	-0.017811	700.0
2320	7.01292e+02	2.32000e+03	-0.0178297	700.0
2321	7.01288e+02	2.32100e+03	-0.0178478	700.0
2322	7.01280e+02	2.32200e+03	-0.0178635	700.0
2323	7.01286e+02	2.32300e+03	-0.0178776	700.0
2324	7.01287e+02	2.32400e+03	-0.0178804	700.0
2325	7.01283e+02	2.32500e+03	-0.0178853	700.0
2326	7.01281e+02	2.32600e+03	-0.0178885	700.0
2327	7.01281e+02	2.32700e+03	-0.01789	700.0
2328	7.01279e+02	2.32800e+03	-0.0178834	700.0
2329	7.01279e+02	2.32900e+03	-0.01788	700.0
2330	7.01282e+02	2.33000e+03	-0.0178768	700.0
2331	7.01286e+02	2.33100e+03	-0.017872	700.0
2332	7.01281e+02	2.33200e+03	-0.017865	700.0
2333	7.01272e+02	2.33300e+03	-0.0178626	700.0
2334	7.01282e+02	2.33400e+03	-0.017864	700.0
2335	7.01282e+02	2.33500e+03	-0.0178677	700.0
2336	7.01288e+02	2.33600e+03	-0.0178798	700.0
2337	7.01284e+02	2.33700e+03	-0.0178904	700.0
2338	7.01285e+02	2.33800e+03	-0.0178978	700.0
2339	7.01282e+02	2.33900e+03	-0.0179026	700.0
2340	7.01282e+02	2.34000e+03	-0.0179098	700.0
2341	7.01281e+02	2.34100e+03	-0.017913	700.0
2342	7.01278e+02	2.34200e+03	-0.0179147	700.0
2343	7.01279e+02	2.34300e+03	-0.0179162	700.0
2344	7.01285e+02	2.34400e+03	-0.0179111	700.0
2345	7.01274e+02	2.34500e+03	-0.0179119	700.0
2346	7.01277e+02	2.34600e+03	-0.0179149	700.0
2347	7.01284e+02	2.34700e+03	-0.017919	700.0
2348	7.01266e+02	2.34800e+03	-0.0179297	700.0
2349	7.01268e+02	2.34900e+03	-0.0179395	700.0
2350	7.01269e+02	2.35000e+03	-0.0179526	700.0
2351	7.01276e+02	2.35100e+03	-0.0179681	700.0
2352	7.01278e+02	2.35200e+03	-0.0179866	700.0
2353	7.01272e+02	2.35300e+03	-0.0180021	700.0
2354	7.01276e+02	2.35400e+03	-0.0180143	700.0
2355	7.01273e+02	2.35500e+03	-0.0180235	700.0
2356	7.01270e+02	2.35600e+03	-0.0180239	700.0
2357	7.01278e+02	2.35700e+03	-0.0180181	700.0
2358	7.01269e+02	2.35800e+03	-0.0180057	700.0
2359	7.01270e+02	2.35900e+03	-0.01799	700.0
2360	7.01272e+02	2.36000e+03	-0.0179517	700.0
2361	7.01266e+02	2.36100e+03	-0.017922	700.0
2362	7.01274e+02	2.36200e+03	-0.0178941	700.0
2363	7.01277e+02	2.36300e+03	-0.0178667	700.0
2364	7.01276e+02	2.36400e+03	-0.0178404	700.0
2365	7.01269e+02	2.36500e+03	-0.0178204	700.0
2366	7.01274e+02	2.36600e+03	-0.017804	700.0
2367	7.01272e+02	2.36700e+03	-0.0177894	700.0
2368	7.01271e+02	2.36800e+03	-0.017789	700.0
2369	7.01276e+02	2.36900e+03	-0.0177815	700.0
2370	7.01280e+02	2.37000e+03	-0.0177706	700.0
2371	7.01274e+02	2.37100e+03	-0.0177575	700.0
2372	7.01273e+02	2.37200e+03	-0.0177454	700.0
2373	7.01269e+02	2.37300e+03	-0.0177365	700.0
2374	7.01280e+02	2.37400e+03	-0.0177313	700.0
2375	7.01270e+02	2.37500e+03	-0.0177288	700.0
2376	7.01268e+02	2.37600e+03	-0.0177368	700.0
2377	7.01274e+02	2.37700e+03	-0.0177465	700.0
2378	7.01283e+02	2.37800e+03	-0.0177592	700.0
2379	7.01276e+02	2.37900e+03	-0.017774	700.0
2380	7.01273e+02	2.38000e+03	-0.0178058	700.0
2381	7.01275e+02	2.38100e+03	-0.0178357	700.0
2382	7.01281e+02	2.38200e+03	-0.0178714	700.0
2383	7.01276e+02	2.38300e+03	-0.0179107	700.0
2384	7.01267e+02	2.38400e+03	-0.01796	700.0
2385	7.01275e+02	2.38500e+03	-0.0180026	700.0
2386	7.01271e+02	2.38600e+03	-0.0180408	700.0
2387	7.01272e+02	2.38700e+03	-0.018076	700.0
2388	7.01276e+02	2.38800e+03	-0.0180999	700.0
2389	7.01281e+02	2.38900e+03	-0.0181187	700.0
2390	7.01279e+02	2.39000e+03	-0.0181316	700.0
2391	7.01278e+02	2.39100e+03	-0.0181395	700.0
2392	7.01277e+02	2.39200e+03	-0.0181214	700.0
2393	7.01276e+02	2.39300e+03	-0.0181163	700.0
2394	7.01268e+02	2.39400e+03	-0.0181146	700.0
2395	7.01275e+02	2.39500e+03	-0.0181141	700.0
2396	7.01276e+02	2.39600e+03	-0.0181159	700.0
2397	7.01273e+02	2.39700e+03	-0.0181209	700.0
2398	7.01271e+02	2.39800e+03	-0.0181277	700.0
2399	7.01275e+02	2.39900e+03	-0.0181352	700.0
2400	7.01273e+02	2.40000e+03	-0.0181464	700.0
2401	7.01278e+02	2.40100e+03	-0.0181489	700.0
2402	7.01273e+02	2.40200e+03	-0.0181448	700.0
2403	7.01268e+02	2.40300e+03	-0.018135	700.0
2404	7.01272e+02	2.40400e+03	-0.0181019	700.0
2405	7.01277e+02	2.40500e+03	-0.018075	700.0
2406	7.01274e+02	2.40600e+03	-0.0180499	700.0
2407	7.01269e+02	2.40700e+03	-0.0180259	700.0
2408	7.01279e+02	2.40800e+03	-0.0179967	700.0
2409	7.01270e+02	2.40900e+03	-0.0179782	700.0
2410	7.01273e+02	2.41000e+03	-0.017963	700.0
2411	7.01266e+02	2.41100e+03	-0.0179487	700.0
2412	7.01277e+02	2.41200e+03	-0.017953	700.0
2413	7.01277e+02	2.41300e+03	-0.0179512	700.0
2414	7.01265e+02	2.41400e+03	-0.0179516	700.0
2415	7.01267e+02	2.41500e+03	-0.0179541	700.0
2416	7.01263e+02	2.41600e+03	-0.0179625	700.0
2417	7.01264e+02	2.41700e+03	-0.0179729	700.0
2418	7.01268e+02	2.41800e+03	-0.0179855	700.0
2419	7.01271e+02	2.41900e+03	-0.0179996	700.0
2420	7.01274e+02	2.42000e+03	-0.0180367	700.0
2421	7.01267e+02	2.42100e+03	-0.0180769	700.0
2422	7.01259e+02	2.42200e+03	-0.0181259	700.0
2423	7.01268e+02	2.42300e+03	-0.0181811	700.0
2424	7.01265e+02	2.42400e+03	-0.018263	700.0
2425	7.01263e+02	2.42500e+03	-0.0183298	700.0
2426	7.01261e+02	2.42600e+03	-0.0183888	700.0
2427	7.01270e+02	2.42700e+03	-0.0184427	700.0
2428	7.01275e+02	2.42800e+03	-0.0184697	700.0
2429	7.01259e+02	2.42900e+03	-0.0184836	700.0
2430	7.01262e+02	2.43000e+03	-0.0184836	700.0
2431	7.01269e+02	2.43100e+03	-0.0184744	700.0
2432	7.01264e+02	2.43200e+03	-0.0184067	700.0
2433	7.01271e+02	2.43300e+03	-0.0183617	700.0
2434	7.01269e+02	2.43400e+03	-0.018318	700.0
2435	7.01266e+02	2.43500e+03	-0.0182728	700.0
2436	7.01262e+02	2.43600e+03	-0.0182207	700.0
2437	7.01258e+02	2.43700e+03	-0.0181786	700.0
2438	7.01265e+02	2.43800e+03	-0.0181423	700.0
2439	7.01267e+02	2.43900e+03	-0.0181092	700.0
2440	7.01267e+02	2.44000e+03	-0.0180964	700.0
2441	7.01267e+02	2.44100e+03	-0.0180812	700.0
2442	7.01264e+02	2.44200e+03	-0.0180693	700.0
2443	7.01264e+02	2.44300e+03	-0.0180601	700.0
2444	7.01267e+02	2.44400e+03	-0.0180667	700.0
2445	7.01264e+02	2.44500e+03	-0.0180661	700.0
2446	7.01265e+02	2.44600e+03	-0.0180646	700.0
2447	7.01265e+02	2.44700e+03	-0.0180636	700.0
2448	7.01269e+02	2.44800e+03	-0.018064	700.0
2449	7.01261e+02	2.44900e+03	-0.0180645	700.0
2450	7.01253e+02	2.45000e+03	-0.0180662	700.0
2451	7.01266e+02	2.45100e+03	-0.0180691	700.0
2452	7.01269e+02	2.45200e+03	-0.0180776	700.0
2453	7.01270e+02	2.45300e+03	-0.0180882	700.0
2454	7.01268e+02	2.45400e+03	-0.0181013	700.0
2455	7.01270e+02	2.45500e+03	-0.0181163	700.0
2456	7.01269e+02	2.45600e+03	-0.0181403	700.0
2457	7.01267e+02	2.45700e+03	-0.018156	700.0
2458	7.01261e+02	2.45800e+03	-0.0181663	700.0
2459	7.01263e+02	2.45900e+03	-0.0181735	700.0
2460	7.01265e+02	2.46000e+03	-0.0181679	700.0
2461	7.01262e+02	2.46100e+03	-0.0181588	700.0
2462	7.01261e+02	2.46200e+03	-0.0181463	700.0
2463	7.01264e+02	2.46300e+03	-0.0181333	700.0
2464	7.01259e+02	2.46400e+03	-0.0181092	700.0
2465	7.01259e+02	2.46500e+03	-0.0181003	700.0
2466	7.01255e+02	2.46600e+03	-0.0181	700.0
2467	7.01266e+02	2.46700e+03	-0.0181032	700.0
2468	7.01266e+02	2.46800e+03	-0.0181212	700.0
2469	7.01261e+02	2.46900e+03	-0.0181301	700.0
2470	7.01267e+02	2.47000e+03	-0.0181356	700.0
2471	7.01265e+02	2.47100e+03	-0.0181396	700.0
2472	7.01265e+02	2.47200e+03	-0.0181367	700.0
2473	7.01266e+02	2.47300e+03	-0.0181312	700.0
2474	7.01260e+02	2.47400e+03	-0.0181229	700.0
2475	7.01266e+02	2.47500e+03	-0.0181128	700.0
2476	7.01259e+02	2.47600e+03	-0.0180914	700.0
2477	7.01260e+02	2.47700e+03	-0.018076	700.0
2478	7.01263e+02	2.47800e+03	-0.018059	700.0
2479	7.01265e+02	2.47900e+03	-0.0180399	700.0
2480	7.01262e+02	2.48000e+03	-0.0180249	700.0
2481	7.01259e+02	2.48100e+03	-0.0180166	700.0
2482	7.01266e+02	2.48200e+03	-0.018016	700.0
2483	7.01261e+02	2.48300e+03	-0.0180194	700.0
2484	7.01255e+02	2.48400e+03	-0.0180379	700.0
2485	7.01260e+02	2.48500e+03	-0.0180535	700.0
2486	7.01261e+02	2.48600e+03	-0.0180701	700.0
2487	7.01263e+02	2.48700e+03	-0.0180875	700.0
2488	7.01262e+02	2.48800e+03	-0.0181139	700.0
2489	7.01268e+02	2.48900e+03	-0.0181329	700.0
2490	7.01264e+02	2.49000e+03	-0.0181481	700.0
2491	7.01269e+02	2.49100e+03	-0.0181596	700.0
2492	7.01262e+02	2.49200e+03	-0.0181535	700.0
2493	7.01261e+02	2.49300e+03	-0.0181451	700.0
2494	7.01265e+02	2.49400e+03	-0.018133	700.0
2495	7.01264e+02	2.49500e+03	-0.0181201	700.0
2496	7.01259e+02	2.49600e+03	-0.0180938	700.0
2497	7.01268e+02	2.49700e+03	-0.0180815	700.0
2498	7.01261e+02	2.49800e+03	-0.0180774	700.0
2499	7.01257e+02	2.49900e+03	-0.0180777	700.0
2500	7.01255e+02	2.50000e+03	-0.0180907	700.0
2501	7.01264e+02	2.50100e+03	-0.0180952	700.0
2502	7.01265e+02	2.50200e+03	-0.0180969	700.0
2503	7.01261e+02	2.50300e+03	-0.0180976	700.0
2504	7.01260e+02	2.50400e+03	-0.0180939	700.0
2505	7.01258e+02	2.50500e+03	-0.018089	700.0
2506	7.01263e+02	2.50600e+03	-0.0180835	700.0
2507	7.01258e+02	2.50700e+03	-0.0180778	700.0
2508	7.01251e+02	2.50800e+03	-0.0180695	700.0
2509	7.01253e+02	2.50900e+03	-0.0180668	700.0
2510	7.01249e+02	2.51000e+03	-0.0180666	700.0
2511	7.01256e+02	2.51100e+03	-0.0180676	700.0
2512	7.01260e+02	2.51200e+03	-0.018077	700.0
2513	7.01253e+02	2.51300e+03	-0.0180826	700.0
2514	7.01245e+02	2.51400e+03	-0.0180901	700.0
2515	7.01250e+02	2.51500e+03	-0.0181006	700.0
2516	7.01256e+02	2.51600e+03	-0.018116	700.0
2517	7.01255e+02	2.51700e+03	-0.01813	700.0
2518	7.01243e+02	2.51800e+03	-0.0181426	700.0
2519	7.01247e+02	2.51900e+03	-0.0181542	700.0
2520	7.01250e+02	2.52000e+03	-0.0181689	700.0
2521	7.01254e+02	2.52100e+03	-0.0181813	700.0
2522	7.01255e+02	2.52200e+03	-0.0181939	700.0
2523	7.01247e+02	2.52300e+03	-0.0182069	700.0
2524	7.01239e+02	2.52400e+03	-0.018217	700.0
2525	7.01250e+02	2.52500e+03	-0.0182266	700.0
2526	7.01244e+02	2.52600e+03	-0.0182303	700.0
2527	7.01253e+02	2.52700e+03	-0.0182285	700.0
2528	7.01238e+02	2.52800e+03	-0.0182118	700.0
2529	7.01240e+02	2.52900e+03	-0.018193	700.0
2530	7.01246e+02	2.53000e+03	-0.0181722	700.0
2531	7.01247e+02	2.53100e+03	-0.0181504	700.0
2532	7.01245e+02	2.53200e+03	-0.0181139	700.0
2533	7.01244e+02	2.53300e+03	-0.0180925	700.0
2534	7.01241e+02	2.53400e+03	-0.0180765	700.0
2535	7.01242e+02	2.53500e+03	-0.0180618	700.0
2536	7.01237e+02	2.53600e+03	-0.0180594	700.0
2537	7.01238e+02	2.53700e+03	-0.0180495	700.0
2538	7.01241e+02	2.53800e+03	-0.0180403	700.0
2539	7.01242e+02	2.53900e+03	-0.0180328	700.0
2540	7.01245e+02	2.54000e+03	-0.0180267	700.0
2541	7.01238e+02	2.54100e+03	-0.0180243	700.0
2542	7.01236e+02	2.54200e+03	-0.0180245	700.0
2543	7.01240e+02	2.54300e+03	-0.0180265	700.0
2544	7.01240e+02	2.54400e+03	-0.0180355	700.0
2545	7.01237e+02	2.54500e+03	-0.0180371	700.0
2546	7.01244e+02	2.54600e+03	-0.018037	700.0
2547	7.01243e+02	2.54700e+03	-0.0180375	700.0
2548	7.01237e+02	2.54800e+03	-0.0180389	700.0
2549	7.01242e+02	2.54900e+03	-0.0180443	700.0
2550	7.01239e+02	2.55000e+03	-0.0180512	700.0
2551	7.01240e+02	2.55100e+03	-0.0180585	700.0
2552	7.01242e+02	2.55200e+03	-0.0180693	700.0
2553	7.01232e+02	2.55300e+03	-0.0180741	700.0
2554	7.01234e+02	2.55400e+03	-0.0180769	700.0
2555	7.01247e+02	2.55500e+03	-0.0180802	700.0
2556	7.01247e+02	2.55600e+03	-0.0180817	700.0
2557	7.01242e+02	2.55700e+03	-0.0180884	700.0
2558	7.01232e+02	2.55800e+03	-0.0180972	700.0
2559	7.01238e+02	2.55900e+03	-0.0181071	700.0
2560	7.01239e+02	2.56000e+03	-0.0181292	700.0
2561	7.01241e+02	2.56100e+03	-0.0181463	700.0
2562	7.01243e+02	2.56200e+03	-0.0181582	700.0
2563	7.01234e+02	2.56300e+03	-0.0181663	700.0
2564	7.01226e+02	2.56400e+03	-0.0181764	700.0
2565	7.01236e+02	2.56500e+03	-0.0181878	700.0
2566	7.01242e+02	2.56600e+03	-0.0181995	700.0
2567	7.01235e+02	2.56700e+03	-0.0182111	700.0
2568	7.01232e+02	2.56800e+03	-0.0182207	700.0
2569	7.01232e+02	2.56900e+03	-0.0182319	700.0
2570	7.01231e+02	2.57000e+03	-0.0182431	700.0
2571	7.01224e+02	2.57100e+03	-0.018254	700.0
2572	7.01238e+02	2.57200e+03	-0.0182651	700.0
2573	7.01240e+02	2.57300e+03	-0.0182742	700.0
2574	7.01237e+02	2.57400e+03	-0.018282	700.0
2575	7.01242e+02	2.57500e+03	-0.0182888	700.0
2576	7.01235e+02	2.57600e+03	-0.0182893	700.0
2577	7.01233e+02	2.57700e+03	-0.0182897	700.0
2578	7.01240e+02	2.57800e+03	-0.0182864	700.0
2579	7.01242e+02	2.57900e+03	-0.0182788	700.0
2580	7.01231e+02	2.58000e+03	-0.0182587	700.0
2581	7.01235e+02	2.58100e+03	-0.0182421	700.0
2582	7.01237e+02	2.58200e+03	-0.0182265	700.0
2583	7.01237e+02	2.58300e+03	-0.0182116	700.0
2584	7.01232e+02	2.58400e+03	-0.0181934	700.0
2585	7.01228e+02	2.58500e+03	-0.0181821	700.0
2586	7.01235e+02	2.58600e+03	-0.0181737	700.0
2587	7.01238e+02	2.58700e+03	-0.0181664	700.0
2588	7.01241e+02	2.58800e+03	-0.0181703	700.0
2589	7.01232e+02	2.58900e+03	-0.0181692	700.0
2590	7.01228e+02	2.59000e+03	-0.0181686	700.0
2591	7.01227e+02	2.59100e+03	-0.0181693	700.0
2592	7.01228e+02	2.59200e+03	-0.0181743	700.0
2593	7.01233e+02	2.59300e+03	-0.018181	700.0
2594	7.01234e+02	2.59400e+03	-0.0181894	700.0
2595	7.01228e+02	2.59500e+03	-0.018199	700.0
2596	7.01230e+02	2.59600e+03	-0.0182164	700.0
2597	7.01234e+02	2.59700e+03	-0.0182299	700.0
2598	7.01233e+02	2.59800e+03	-0.0182434	700.0
2599	7.01239e+02	2.59900e+03	-0.0182584	700.0
2600	7.01227e+02	2.60000e+03	-0.0182787	700.0
2601	7.01233e+02	2.60100e+03	-0.0182979	700.0
2602	7.01237e+02	2.60200e+03	-0.0183124	700.0
2603	7.01229e+02	2.60300e+03	-0.0183229	700.0
2604	7.01230e+02	2.60400e+03	-0.0183281	700.0
2605	7.01230e+02	2.60500e+03	-0.0183251	700.0
2606	7.01231e+02	2.60600e+03	-0.0183162	700.0
2607	7.01235e+02	2.60700e+03	-0.0183053	700.0
2608	7.01233e+02	2.60800e+03	-0.018276	700.0
2609	7.01240e+02	2.60900e+03	-0.0182585	700.0
2610	7.01237e+02	2.61000e+03	-0.0182444	700.0
2611	7.01234e+02	2.61100e+03	-0.0182314	700.0
2612	7.01231e+02	2.61200e+03	-0.0182257	700.0
2613	7.01234e+02	2.61300e+03	-0.0182196	700.0
2614	7.01230e+02	2.61400e+03	-0.0182158	700.0
2615	7.01237e+02	2.61500e+03	-0.018214	700.0
2616	7.01240e+02	2.61600e+03	-0.018223	700.0
2617	7.01231e+02	2.61700e+03	-0.0182311	700.0
2618	7.01228e+02	2.61800e+03	-0.0182405	700.0
2619	7.01226e+02	2.61900e+03	-0.0182507	700.0
2620	7.01226e+02	2.62000e+03	-0.0182619	700.0
2621	7.01229e+02	2.62100e+03	-0.0182659	700.0
2622	7.01229e+02	2.62200e+03	-0.0182687	700.0
2623	7.01226e+02	2.62300e+03	-0.0182727	700.0
2624	7.01237e+02	2.62400e+03	-0.0182727	700.0
2625	7.01234e+02	2.62500e+03	-0.0182823	700.0
2626	7.01225e+02	2.62600e+03	-0.0182964	700.0
2627	7.01227e+02	2.62700e+03	-0.0183115	700.0
2628	7.01228e+02	2.62800e+03	-0.0183361	700.0
2629	7.01227e+02	2.62900e+03	-0.0183513	700.0
2630	7.01227e+02	2.63000e+03	-0.0183624	700.0
2631	7.01226e+02	2.63100e+03	-0.0183712	700.0
2632	7.01233e+02	2.63200e+03	-0.018368	700.0
2633	7.01227e+02	2.63300e+03	-0.0183664	700.0
2634	7.01233e+02	2.63400e+03	-0.0183628	700.0
2635	7.01230e+02	2.63500e+03	-0.0183572	700.0
2636	7.01219e+02	2.63600e+03	-0.0183355	700.0
2637	7.01219e+02	2.63700e+03	-0.0183135	700.0
2638	7.01226e+02	2.63800e+03	-0.018288	700.0
2639	7.01221e+02	2.63900e+03	-0.0182605	700.0
2640	7.01224e+02	2.64000e+03	-0.0182239	700.0
2641	7.01225e+02	2.64100e+03	-0.0181963	700.0
2642	7.01224e+02	2.64200e+03	-0.0181726	700.0
2643	7.01222e+02	2.64300e+03	-0.0181511	700.0
2644	7.01231e+02	2.64400e+03	-0.018139	700.0
2645	7.01218e+02	2.64500e+03	-0.0181249	700.0
2646	7.01224e+02	2.64600e+03	-0.0181117	700.0
2647	7.01228e+02	2.64700e+03	-0.0180995	700.0
2648	7.01228e+02	2.64800e+03	-0.0180987	700.0
2649	7.01220e+02	2.64900e+03	-0.0181002	700.0
2650	7.01218e+02	2.65000e+03	-0.0181059	700.0
2651	7.01230e+02	2.65100e+03	-0.0181137	700.0
2652	7.01230e+02	2.65200e+03	-0.0181362	700.0
2653	7.01233e+02	2.65300e+03	-0.0181544	700.0
2654	7.01220e+02	2.65400e+03	-0.0181725	700.0
2655	7.01226e+02	2.65500e+03	-0.0181911	700.0
2656	7.01227e+02	2.65600e+03	-0.0182144	700.0
2657	7.01228e+02	2.65700e+03	-0.0182339	700.0
2658	7.01227e+02	2.65800e+03	-0.0182541	700.0
2659	7.01222e+02	2.65900e+03	-0.0182767	700.0
2660	7.01226e+02	2.66000e+03	-0.0183029	700.0
2661	7.01234e+02	2.66100e+03	-0.0183296	700.0
2662	7.01233e+02	2.66200e+03	-0.0183543	700.0
2663	7.01223e+02	2.66300e+03	-0.0183757	700.0
2664	7.01232e+02	2.66400e+03	-0.0183949	700.0
2665	7.01227e+02	2.66500e+03	-0.0184088	700.0
2666	7.01221e+02	2.66600e+03	-0.0184206	700.0
2667	7.01220e+02	2.66700e+03	-0.0184314	700.0
2668	7.01220e+02	2.66800e+03	-0.0184283	700.0
2669	7.01226e+02	2.66900e+03	-0.0184342	700.0
2670	7.01224e+02	2.67000e+03	-0.0184422	700.0
2671	7.01231e+02	2.67100e+03	-0.0184504	700.0
2672	7.01223e+02	2.67200e+03	-0.0184625	700.0
2673	7.01227e+02	2.67300e+03	-0.0184712	700.0
2674	7.01229e+02	2.67400e+03	-0.0184783	700.0
2675	7.01228e+02	2.67500e+03	-0.0184844	700.0
2676	7.01230e+02	2.67600e+03	-0.0184836	700.0
2677	7.01232e+02	2.67700e+03	-0.0184813	700.0
2678	7.01225e+02	2.67800e+03	-0.0184756	700.0
2679	7.01234e+02	2.67900e+03	-0.0184673	700.0
2680	7.01219e+02	2.68000e+03	-0.0184446	700.0
2681	7.01225e+02	2.68100e+03	-0.0184232	700.0
2682	7.01223e+02	2.68200e+03	-0.0183972	700.0
2683	7.01229e+02	2.68300e+03	-0.0183672	700.0
2684	7.01236e+02	2.68400e+03	-0.0183271	700.0
2685	7.01232e+02	2.68500e+03	-0.0182955	700.0
2686	7.01230e+02	2.68600e+03	-0.0182678	700.0
2687	7.01225e+02	2.68700e+03	-0.0182423	700.0
2688	7.01225e+02	2.68800e+03	-0.0182264	700.0
2689	7.01226e+02	2.68900e+03	-0.0182124	700.0
2690	7.01228e+02	2.69000e+03	-0.0182014	700.0
2691	7.01222e+02	2.69100e+03	-0.0181924	700.0
2692	7.01226e+02	2.69200e+03	-0.018197	700.0
2693	7.01226e+02	2.69300e+03	-0.0181961	700.0
2694	7.01223e+02	2.69400e+03	-0.0181963	700.0
2695	7.01227e+02	2.69500e+03	-0.0181978	700.0
2696	7.01223e+02	2.69600e+03	-0.0182015	700.0
2697	7.01232e+02	2.69700e+03	-0.0182031	700.0
2698	7.01224e+02	2.69800e+03	-0.0182027	700.0
2699	7.01222e+02	2.69900e+03	-0.0182011	700.0
2700	7.01225e+02	2.70000e+03	-0.0181949	700.0
2701	7.01231e+02	2.70100e+03	-0.018188	700.0
2702	7.01229e+02	2.70200e+03	-0.0181808	700.0
2703	7.01225e+02	2.70300e+03	-0.0181735	700.0
2704	7.01228e+02	2.70400e+03	-0.0181646	700.0
2705	7.01228e+02	2.70500e+03	-0.0181617	700.0
2706	7.01227e+02	2.70600e+03	-0.0181626	700.0
2707	7.01222e+02	2.70700e+03	-0.0181657	700.0
2708	7.01225e+02	2.70800e+03	-0.0181826	700.0
2709	7.01221e+02	2.70900e+03	-0.0181965	700.0
2710	7.01220e+02	2.71000e+03	-0.0182119	700.0
2711	7.01221e+02	2.71100e+03	-0.0182295	700.0
2712	7.01228e+02	2.71200e+03	-0.0182492	700.0
2713	7.01216e+02	2.71300e+03	-0.0182686	700.0
2714	7.01214e+02	2.71400e+03	-0.0182846	700.0
2715	7.01216e+02	2.71500e+03	-0.0182977	700.0
2716	7.01223e+02	2.71600e+03	-0.018309	700.0
2717	7.01224e+02	2.71700e+03	-0.0183176	700.0
2718	7.01216e+02	2.71800e+03	-0.0183234	700.0
2719	7.01217e+02	2.71900e+03	-0.0183265	700.0
2720	7.01219e+02	2.72000e+03	-0.0183278	700.0
