Index	Ts	t	Weight	Tr
[#]	[°C]	[s]	[mg]	[°C]
681	1.30378e+02	6.81000e+02	3.04811	130.5
682	1.30891e+02	6.82000e+02	3.04799	131.0
683	1.31399e+02	6.83000e+02	3.04786	131.5
684	1.31896e+02	6.84000e+02	3.04766	132.0
685	1.32399e+02	6.85000e+02	3.04752	132.5
686	1.32911e+02	6.86000e+02	3.04741	133.0
687	1.33418e+02	6.87000e+02	3.0473	133.5
688	1.33923e+02	6.88000e+02	3.04726	134.0
689	1.34426e+02	6.89000e+02	3.0472	134.5
690	1.34933e+02	6.90000e+02	3.04714	135.0
691	1.35432e+02	6.91000e+02	3.04708	135.5
692	1.35947e+02	6.92000e+02	3.04706	136.0
693	1.36448e+02	6.93000e+02	3.04702	136.5
694	1.36959e+02	6.94000e+02	3.04699	137.0
695	1.37453e+02	6.95000e+02	3.04695	137.5
696	1.37954e+02	6.96000e+02	3.04691	138.0
697	1.38469e+02	6.97000e+02	3.04687	138.5
698	1.38982e+02	6.98000e+02	3.04682	139.0
699	1.39485e+02	6.99000e+02	3.04676	139.5
700	1.39976e+02	7.00000e+02	3.04668	140.0
701	1.40473e+02	7.01000e+02	3.0466	140.5
702	1.40997e+02	7.02000e+02	3.04652	141.0
703	1.41500e+02	7.03000e+02	3.04643	141.5
704	1.41994e+02	7.04000e+02	3.04633	142.0
705	1.42508e+02	7.05000e+02	3.04623	142.5
706	1.43011e+02	7.06000e+02	3.04612	143.0
707	1.43502e+02	7.07000e+02	3.04601	143.5
708	1.44022e+02	7.08000e+02	3.04588	144.0
709	1.44524e+02	7.09000e+02	3.04576	144.5
710	1.45036e+02	7.10000e+02	3.04564	145.0
711	1.45535e+02	7.11000e+02	3.04552	145.5
712	1.46038e+02	7.12000e+02	3.04539	146.0
713	1.46554e+02	7.13000e+02	3.04527	146.5
714	1.47054e+02	7.14000e+02	3.04513	147.0
715	1.47551e+02	7.15000e+02	3.04498	147.5
716	1.48063e+02	7.16000e+02	3.04482	148.0
717	1.48566e+02	7.17000e+02	3.04466	148.5
718	1.49076e+02	7.18000e+02	3.0445	149.0
719	1.49569e+02	7.19000e+02	3.04434	149.5
720	1.50093e+02	7.20000e+02	3.04418	150.0
721	1.50607e+02	7.21000e+02	3.04403	150.5
722	1.51104e+02	7.22000e+02	3.04387	151.0
723	1.51617e+02	7.23000e+02	3.04372	151.5
724	1.52111e+02	7.24000e+02	3.04356	152.0
725	1.52629e+02	7.25000e+02	3.04338	152.5
726	1.53116e+02	7.26000e+02	3.04319	153.0
727	1.53626e+02	7.27000e+02	3.04299	153.5
728	1.54142e+02	7.28000e+02	3.04276	154.0
729	1.54634e+02	7.29000e+02	3.04254	154.5
730	1.55143e+02	7.30000e+02	3.04232	155.0
731	1.55649e+02	7.31000e+02	3.04211	155.5
732	1.56156e+02	7.32000e+02	3.04188	156.0
733	1.56667e+02	7.33000e+02	3.04167	156.5
734	1.57184e+02	7.34000e+02	3.04146	157.0
735	1.57693e+02	7.35000e+02	3.04125	157.5
736	1.58195e+02	7.36000e+02	3.04106	158.0
737	1.58702e+02	7.37000e+02	3.04086	158.5
738	1.59212e+02	7.38000e+02	3.04066	159.0
739	1.59711e+02	7.39000e+02	3.04046	159.5
740	1.60216e+02	7.40000e+02	3.04026	160.0
741	1.60731e+02	7.41000e+02	3.04004	160.5
742	1.61238e+02	7.42000e+02	3.0398	161.0
743	1.61727e+02	7.43000e+02	3.03957	161.5
744	1.62245e+02	7.44000e+02	3.03929	162.0
745	1.62760e+02	7.45000e+02	3.03903	162.5
746	1.63262e+02	7.46000e+02	3.03876	163.0
747	1.63780e+02	7.47000e+02	3.0385	163.5
748	1.64289e+02	7.48000e+02	3.03821	164.0
749	1.64795e+02	7.49000e+02	3.03792	164.5
750	1.65291e+02	7.50000e+02	3.03764	165.0
751	1.65808e+02	7.51000e+02	3.03735	165.5
752	1.66308e+02	7.52000e+02	3.03705	166.0
753	1.66813e+02	7.53000e+02	3.03677	166.5
754	1.67331e+02	7.54000e+02	3.03649	167.0
755	1.67832e+02	7.55000e+02	3.03622	167.5
756	1.68337e+02	7.56000e+02	3.03594	168.0
757	1.68851e+02	7.57000e+02	3.03565	168.5
758	1.69356e+02	7.58000e+02	3.03535	169.0
759	1.69877e+02	7.59000e+02	3.03504	169.5
760	1.70376e+02	7.60000e+02	3.03471	170.0
761	1.70882e+02	7.61000e+02	3.03439	170.5
762	1.71397e+02	7.62000e+02	3.03408	171.0
763	1.71909e+02	7.63000e+02	3.03377	171.5
764	1.72409e+02	7.64000e+02	3.03345	172.0
765	1.72913e+02	7.65000e+02	3.03311	172.5
766	1.73418e+02	7.66000e+02	3.03276	173.0
767	1.73928e+02	7.67000e+02	3.03239	173.5
768	1.74431e+02	7.68000e+02	3.03196	174.0
769	1.74949e+02	7.69000e+02	3.03154	174.5
770	1.75446e+02	7.70000e+02	3.03111	175.0
771	1.75961e+02	7.71000e+02	3.03067	175.5
772	1.76474e+02	7.72000e+02	3.03016	176.0
773	1.76991e+02	7.73000e+02	3.02966	176.5
774	1.77501e+02	7.74000e+02	3.02915	177.0
775	1.78016e+02	7.75000e+02	3.02863	177.5
776	1.78517e+02	7.76000e+02	3.02805	178.0
777	1.79024e+02	7.77000e+02	3.02748	178.5
778	1.79536e+02	7.78000e+02	3.0269	179.0
779	1.80039e+02	7.79000e+02	3.02631	179.5
780	1.80555e+02	7.80000e+02	3.02566	180.0
781	1.81060e+02	7.81000e+02	3.02501	180.5
782	1.81582e+02	7.82000e+02	3.02434	181.0
783	1.82077e+02	7.83000e+02	3.02366	181.5
784	1.82588e+02	7.84000e+02	3.0229	182.0
785	1.83094e+02	7.85000e+02	3.02214	182.5
786	1.83604e+02	7.86000e+02	3.02136	183.0
787	1.84112e+02	7.87000e+02	3.02056	183.5
788	1.84621e+02	7.88000e+02	3.01965	184.0
789	1.85134e+02	7.89000e+02	3.01874	184.5
790	1.85644e+02	7.90000e+02	3.01781	185.0
791	1.86150e+02	7.91000e+02	3.01685	185.5
792	1.86663e+02	7.92000e+02	3.01575	186.0
793	1.87169e+02	7.93000e+02	3.01468	186.5
794	1.87673e+02	7.94000e+02	3.01359	187.0
795	1.88192e+02	7.95000e+02	3.01247	187.5
796	1.88698e+02	7.96000e+02	3.01125	188.0
797	1.89211e+02	7.97000e+02	3.01004	188.5
798	1.89710e+02	7.98000e+02	3.0088	189.0
799	1.90230e+02	7.99000e+02	3.00755	189.5
800	1.90735e+02	8.00000e+02	3.0062	190.0
801	1.91255e+02	8.01000e+02	3.00486	190.5
802	1.91767e+02	8.02000e+02	3.00351	191.0
803	1.92261e+02	8.03000e+02	3.00215	191.5
804	1.92783e+02	8.04000e+02	3.00072	192.0
805	1.93290e+02	8.05000e+02	2.9993	192.5
806	1.93805e+02	8.06000e+02	2.99788	193.0
807	1.94315e+02	8.07000e+02	2.99645	193.5
808	1.94830e+02	8.08000e+02	2.99497	194.0
809	1.95348e+02	8.09000e+02	2.99349	194.5
810	1.95859e+02	8.10000e+02	2.992	195.0
811	1.96363e+02	8.11000e+02	2.9905	195.5
812	1.96874e+02	8.12000e+02	2.98895	196.0
813	1.97389e+02	8.13000e+02	2.98744	196.5
814	1.97889e+02	8.14000e+02	2.98592	197.0
815	1.98415e+02	8.15000e+02	2.98441	197.5
816	1.98920e+02	8.16000e+02	2.98291	198.0
817	1.99429e+02	8.17000e+02	2.98142	198.5
818	1.99952e+02	8.18000e+02	2.97994	199.0
819	2.00461e+02	8.19000e+02	2.97847	199.5
820	2.00970e+02	8.20000e+02	2.97706	200.0
821	2.01488e+02	8.21000e+02	2.97565	200.5
822	2.01997e+02	8.22000e+02	2.97426	201.0
823	2.02499e+02	8.23000e+02	2.97289	201.5
824	2.03026e+02	8.24000e+02	2.9716	202.0
825	2.03533e+02	8.25000e+02	2.97029	202.5
826	2.04046e+02	8.26000e+02	2.96901	203.0
827	2.04558e+02	8.27000e+02	2.96774	203.5
828	2.05068e+02	8.28000e+02	2.96657	204.0
829	2.05583e+02	8.29000e+02	2.9654	204.5
830	2.06091e+02	8.30000e+02	2.96426	205.0
831	2.06606e+02	8.31000e+02	2.96315	205.5
832	2.07109e+02	8.32000e+02	2.96216	206.0
833	2.07624e+02	8.33000e+02	2.96115	206.5
834	2.08156e+02	8.34000e+02	2.96016	207.0
835	2.08665e+02	8.35000e+02	2.95918	207.5
836	2.09174e+02	8.36000e+02	2.95831	208.0
837	2.09688e+02	8.37000e+02	2.95742	208.5
838	2.10193e+02	8.38000e+02	2.95655	209.0
839	2.10713e+02	8.39000e+02	2.9557	209.5
840	2.11227e+02	8.40000e+02	2.95494	210.0
841	2.11745e+02	8.41000e+02	2.95419	210.5
842	2.12258e+02	8.42000e+02	2.95349	211.0
843	2.12779e+02	8.43000e+02	2.95283	211.5
844	2.13304e+02	8.44000e+02	2.95237	212.0
845	2.13803e+02	8.45000e+02	2.95189	212.5
846	2.14314e+02	8.46000e+02	2.95145	213.0
847	2.14828e+02	8.47000e+02	2.95102	213.5
848	2.15335e+02	8.48000e+02	2.95072	214.0
849	2.15840e+02	8.49000e+02	2.9503	214.5
850	2.16356e+02	8.50000e+02	2.94984	215.0
851	2.16863e+02	8.51000e+02	2.94936	215.5
852	2.17372e+02	8.52000e+02	2.94878	216.0
853	2.17872e+02	8.53000e+02	2.94825	216.5
854	2.18382e+02	8.54000e+02	2.94773	217.0
855	2.18889e+02	8.55000e+02	2.94721	217.5
856	2.19389e+02	8.56000e+02	2.94671	218.0
857	2.19907e+02	8.57000e+02	2.94625	218.5
858	2.20420e+02	8.58000e+02	2.94581	219.0
859	2.20917e+02	8.59000e+02	2.94539	219.5
860	2.21425e+02	8.60000e+02	2.94504	220.0
861	2.21918e+02	8.61000e+02	2.94464	220.5
862	2.22429e+02	8.62000e+02	2.94423	221.0
863	2.22946e+02	8.63000e+02	2.94381	221.5
864	2.23453e+02	8.64000e+02	2.94338	222.0
865	2.23960e+02	8.65000e+02	2.94297	222.5
866	2.24478e+02	8.66000e+02	2.94258	223.0
867	2.24977e+02	8.67000e+02	2.94219	223.5
868	2.25486e+02	8.68000e+02	2.94185	224.0
869	2.25985e+02	8.69000e+02	2.94153	224.5
870	2.26492e+02	8.70000e+02	2.94121	225.0
871	2.26988e+02	8.71000e+02	2.94091	225.5
872	2.27510e+02	8.72000e+02	2.94066	226.0
873	2.28020e+02	8.73000e+02	2.94037	226.5
874	2.28521e+02	8.74000e+02	2.94006	227.0
875	2.29038e+02	8.75000e+02	2.93975	227.5
876	2.29552e+02	8.76000e+02	2.9394	228.0
877	2.30057e+02	8.77000e+02	2.93906	228.5
878	2.30559e+02	8.78000e+02	2.93872	229.0
879	2.31056e+02	8.79000e+02	2.93839	229.5
880	2.31564e+02	8.80000e+02	2.93805	230.0
881	2.32071e+02	8.81000e+02	2.93771	230.5
882	2.32579e+02	8.82000e+02	2.93737	231.0
883	2.33077e+02	8.83000e+02	2.93702	231.5
884	2.33579e+02	8.84000e+02	2.93665	232.0
885	2.34082e+02	8.85000e+02	2.93628	232.5
886	2.34576e+02	8.86000e+02	2.9359	233.0
887	2.35081e+02	8.87000e+02	2.93552	233.5
888	2.35572e+02	8.88000e+02	2.93511	234.0
889	2.36077e+02	8.89000e+02	2.93472	234.5
890	2.36577e+02	8.90000e+02	2.93434	235.0
891	2.37092e+02	8.91000e+02	2.93395	235.5
892	2.37602e+02	8.92000e+02	2.93358	236.0
893	2.38118e+02	8.93000e+02	2.9332	236.5
894	2.38635e+02	8.94000e+02	2.93282	237.0
895	2.39141e+02	8.95000e+02	2.93244	237.5
896	2.39652e+02	8.96000e+02	2.93205	238.0
897	2.40160e+02	8.97000e+02	2.93167	238.5
898	2.40669e+02	8.98000e+02	2.93129	239.0
899	2.41188e+02	8.99000e+02	2.93091	239.5
900	2.41692e+02	9.00000e+02	2.93053	240.0
901	2.42206e+02	9.01000e+02	2.93015	240.5
902	2.42721e+02	9.02000e+02	2.92977	241.0
903	2.43224e+02	9.03000e+02	2.92939	241.5
904	2.43742e+02	9.04000e+02	2.92903	242.0
905	2.44258e+02	9.05000e+02	2.92867	242.5
906	2.44762e+02	9.06000e+02	2.92832	243.0
907	2.45288e+02	9.07000e+02	2.92797	243.5
908	2.45776e+02	9.08000e+02	2.92764	244.0
909	2.46302e+02	9.09000e+02	2.9273	244.5
910	2.46813e+02	9.10000e+02	2.92695	245.0
911	2.47306e+02	9.11000e+02	2.92661	245.5
912	2.47808e+02	9.12000e+02	2.92627	246.0
913	2.48322e+02	9.13000e+02	2.92594	246.5
914	2.48827e+02	9.14000e+02	2.92562	247.0
915	2.49344e+02	9.15000e+02	2.92531	247.5
916	2.49849e+02	9.16000e+02	2.92502	248.0
917	2.50375e+02	9.17000e+02	2.92471	248.5
918	2.50890e+02	9.18000e+02	2.92441	249.0
919	2.51438e+02	9.19000e+02	2.9241	249.5
920	2.51947e+02	9.20000e+02	2.9238	250.0
921	2.52456e+02	9.21000e+02	2.9235	250.5
922	2.52974e+02	9.22000e+02	2.92321	251.0
923	2.53482e+02	9.23000e+02	2.92291	251.5
924	2.53993e+02	9.24000e+02	2.92263	252.0
925	2.54494e+02	9.25000e+02	2.92235	252.5
926	2.55019e+02	9.26000e+02	2.92207	253.0
927	2.55544e+02	9.27000e+02	2.9218	253.5
928	2.56076e+02	9.28000e+02	2.92155	254.0
929	2.56603e+02	9.29000e+02	2.9213	254.5
930	2.57138e+02	9.30000e+02	2.92105	255.0
931	2.57654e+02	9.31000e+02	2.92081	255.5
932	2.58171e+02	9.32000e+02	2.92057	256.0
933	2.58685e+02	9.33000e+02	2.92032	256.5
934	2.59192e+02	9.34000e+02	2.92005	257.0
935	2.59702e+02	9.35000e+02	2.91978	257.5
936	2.60230e+02	9.36000e+02	2.91949	258.0
937	2.60737e+02	9.37000e+02	2.91921	258.5
938	2.61250e+02	9.38000e+02	2.91894	259.0
939	2.61762e+02	9.39000e+02	2.91867	259.5
940	2.62297e+02	9.40000e+02	2.91841	260.0
941	2.62816e+02	9.41000e+02	2.91814	260.5
942	2.63334e+02	9.42000e+02	2.91787	261.0
943	2.63834e+02	9.43000e+02	2.91759	261.5
944	2.64354e+02	9.44000e+02	2.91732	262.0
945	2.64879e+02	9.45000e+02	2.91706	262.5
946	2.65389e+02	9.46000e+02	2.9168	263.0
947	2.65908e+02	9.47000e+02	2.91654	263.5
948	2.66431e+02	9.48000e+02	2.91629	264.0
949	2.66962e+02	9.49000e+02	2.91604	264.5
950	2.67467e+02	9.50000e+02	2.91578	265.0
951	2.67976e+02	9.51000e+02	2.91551	265.5
952	2.68474e+02	9.52000e+02	2.91525	266.0
953	2.68991e+02	9.53000e+02	2.91498	266.5
954	2.69505e+02	9.54000e+02	2.91471	267.0
955	2.70012e+02	9.55000e+02	2.91444	267.5
956	2.70504e+02	9.56000e+02	2.91416	268.0
957	2.71014e+02	9.57000e+02	2.91388	268.5
958	2.71534e+02	9.58000e+02	2.91359	269.0
959	2.72050e+02	9.59000e+02	2.9133	269.5
960	2.72577e+02	9.60000e+02	2.91299	270.0
961	2.73096e+02	9.61000e+02	2.91269	270.5
962	2.73625e+02	9.62000e+02	2.91238	271.0
963	2.74149e+02	9.63000e+02	2.91207	271.5
964	2.74698e+02	9.64000e+02	2.91175	272.0
965	2.75204e+02	9.65000e+02	2.91142	272.5
966	2.75722e+02	9.66000e+02	2.91109	273.0
967	2.76227e+02	9.67000e+02	2.91075	273.5
968	2.76751e+02	9.68000e+02	2.91038	274.0
969	2.77264e+02	9.69000e+02	2.91002	274.5
970	2.77766e+02	9.70000e+02	2.90965	275.0
971	2.78283e+02	9.71000e+02	2.90927	275.5
972	2.78803e+02	9.72000e+02	2.90886	276.0
973	2.79325e+02	9.73000e+02	2.90846	276.5
974	2.79847e+02	9.74000e+02	2.90805	277.0
975	2.80364e+02	9.75000e+02	2.90763	277.5
976	2.80882e+02	9.76000e+02	2.90718	278.0
977	2.81419e+02	9.77000e+02	2.90672	278.5
978	2.81934e+02	9.78000e+02	2.90627	279.0
979	2.82452e+02	9.79000e+02	2.90581	279.5
980	2.82955e+02	9.80000e+02	2.90531	280.0
981	2.83441e+02	9.81000e+02	2.90483	280.5
982	2.83945e+02	9.82000e+02	2.90433	281.0
983	2.84472e+02	9.83000e+02	2.90382	281.5
984	2.84970e+02	9.84000e+02	2.90327	282.0
985	2.85485e+02	9.85000e+02	2.9027	282.5
986	2.86001e+02	9.86000e+02	2.90212	283.0
987	2.86516e+02	9.87000e+02	2.90152	283.5
988	2.87036e+02	9.88000e+02	2.90084	284.0
989	2.87574e+02	9.89000e+02	2.90018	284.5
990	2.88084e+02	9.90000e+02	2.8995	285.0
991	2.88606e+02	9.91000e+02	2.89881	285.5
992	2.89143e+02	9.92000e+02	2.89805	286.0
993	2.89663e+02	9.93000e+02	2.89729	286.5
994	2.90192e+02	9.94000e+02	2.89652	287.0
995	2.90723e+02	9.95000e+02	2.89574	287.5
996	2.91272e+02	9.96000e+02	2.89488	288.0
997	2.91799e+02	9.97000e+02	2.89403	288.5
998	2.92314e+02	9.98000e+02	2.89316	289.0
999	2.92831e+02	9.99000e+02	2.89227	289.5
1000	2.93352e+02	1.00000e+03	2.89129	290.0
1001	2.93878e+02	1.00100e+03	2.8903	290.5
1002	2.94365e+02	1.00200e+03	2.88928	291.0
1003	2.94870e+02	1.00300e+03	2.88823	291.5
1004	2.95394e+02	1.00400e+03	2.88705	292.0
1005	2.95896e+02	1.00500e+03	2.8859	292.5
1006	2.96405e+02	1.00600e+03	2.88475	293.0
1007	2.96912e+02	1.00700e+03	2.88358	293.5
1008	2.97433e+02	1.00800e+03	2.88234	294.0
1009	2.97936e+02	1.00900e+03	2.88113	294.5
1010	2.98449e+02	1.01000e+03	2.8799	295.0
1011	2.98946e+02	1.01100e+03	2.87866	295.5
1012	2.99461e+02	1.01200e+03	2.87735	296.0
1013	2.99971e+02	1.01300e+03	2.87603	296.5
1014	3.00468e+02	1.01400e+03	2.87468	297.0
1015	3.00966e+02	1.01500e+03	2.8733	297.5
1016	3.01480e+02	1.01600e+03	2.8718	298.0
1017	3.01976e+02	1.01700e+03	2.87031	298.5
1018	3.02483e+02	1.01800e+03	2.8688	299.0
1019	3.03004e+02	1.01900e+03	2.86726	299.5
1020	3.03501e+02	1.02000e+03	2.8656	300.0
1021	3.04011e+02	1.02100e+03	2.86396	300.5
1022	3.04542e+02	1.02200e+03	2.8623	301.0
1023	3.05076e+02	1.02300e+03	2.86062	301.5
1024	3.05611e+02	1.02400e+03	2.85883	302.0
1025	3.06137e+02	1.02500e+03	2.85704	302.5
1026	3.06645e+02	1.02600e+03	2.85523	303.0
1027	3.07163e+02	1.02700e+03	2.85339	303.5
1028	3.07663e+02	1.02800e+03	2.85143	304.0
1029	3.08167e+02	1.02900e+03	2.8495	304.5
1030	3.08679e+02	1.03000e+03	2.84755	305.0
1031	3.09168e+02	1.03100e+03	2.84559	305.5
1032	3.09658e+02	1.03200e+03	2.84353	306.0
1033	3.10164e+02	1.03300e+03	2.84148	306.5
1034	3.10651e+02	1.03400e+03	2.83941	307.0
1035	3.11148e+02	1.03500e+03	2.83731	307.5
1036	3.11658e+02	1.03600e+03	2.83513	308.0
1037	3.12164e+02	1.03700e+03	2.83297	308.5
1038	3.12667e+02	1.03800e+03	2.8308	309.0
1039	3.13165e+02	1.03900e+03	2.82862	309.5
1040	3.13682e+02	1.04000e+03	2.82638	310.0
1041	3.14183e+02	1.04100e+03	2.82415	310.5
1042	3.14696e+02	1.04200e+03	2.82191	311.0
1043	3.15179e+02	1.04300e+03	2.81966	311.5
1044	3.15698e+02	1.04400e+03	2.81738	312.0
1045	3.16198e+02	1.04500e+03	2.81513	312.5
1046	3.16675e+02	1.04600e+03	2.81289	313.0
1047	3.17174e+02	1.04700e+03	2.81066	313.5
1048	3.17690e+02	1.04800e+03	2.80843	314.0
1049	3.18178e+02	1.04900e+03	2.80617	314.5
1050	3.18695e+02	1.05000e+03	2.80386	315.0
1051	3.19177e+02	1.05100e+03	2.80153	315.5
1052	3.19671e+02	1.05200e+03	2.79912	316.0
1053	3.20177e+02	1.05300e+03	2.7967	316.5
1054	3.20672e+02	1.05400e+03	2.79428	317.0
1055	3.21188e+02	1.05500e+03	2.79185	317.5
1056	3.21684e+02	1.05600e+03	2.78936	318.0
1057	3.22191e+02	1.05700e+03	2.78693	318.5
1058	3.22693e+02	1.05800e+03	2.78453	319.0
1059	3.23189e+02	1.05900e+03	2.78213	319.5
1060	3.23700e+02	1.06000e+03	2.7798	320.0
1061	3.24220e+02	1.06100e+03	2.77742	320.5
1062	3.24706e+02	1.06200e+03	2.77502	321.0
1063	3.25221e+02	1.06300e+03	2.77262	321.5
1064	3.25728e+02	1.06400e+03	2.77017	322.0
1065	3.26222e+02	1.06500e+03	2.76771	322.5
1066	3.26739e+02	1.06600e+03	2.76522	323.0
1067	3.27264e+02	1.06700e+03	2.76272	323.5
1068	3.27777e+02	1.06800e+03	2.76011	324.0
1069	3.28298e+02	1.06900e+03	2.7575	324.5
1070	3.28798e+02	1.07000e+03	2.75486	325.0
1071	3.29313e+02	1.07100e+03	2.75219	325.5
1072	3.29818e+02	1.07200e+03	2.74938	326.0
1073	3.30357e+02	1.07300e+03	2.74657	326.5
1074	3.30887e+02	1.07400e+03	2.74372	327.0
1075	3.31407e+02	1.07500e+03	2.74084	327.5
1076	3.31929e+02	1.07600e+03	2.73775	328.0
1077	3.32455e+02	1.07700e+03	2.73467	328.5
1078	3.32966e+02	1.07800e+03	2.73154	329.0
1079	3.33475e+02	1.07900e+03	2.72837	329.5
1080	3.33971e+02	1.08000e+03	2.72496	330.0
1081	3.34479e+02	1.08100e+03	2.72157	330.5
1082	3.35003e+02	1.08200e+03	2.71811	331.0
1083	3.35513e+02	1.08300e+03	2.71461	331.5
1084	3.36020e+02	1.08400e+03	2.71081	332.0
1085	3.36558e+02	1.08500e+03	2.70702	332.5
1086	3.37037e+02	1.08600e+03	2.70315	333.0
1087	3.37541e+02	1.08700e+03	2.6992	333.5
1088	3.38029e+02	1.08800e+03	2.69487	334.0
1089	3.38532e+02	1.08900e+03	2.69058	334.5
1090	3.39008e+02	1.09000e+03	2.68619	335.0
1091	3.39493e+02	1.09100e+03	2.68173	335.5
1092	3.39983e+02	1.09200e+03	2.67686	336.0
1093	3.40461e+02	1.09300e+03	2.67205	336.5
1094	3.40976e+02	1.09400e+03	2.66716	337.0
1095	3.41466e+02	1.09500e+03	2.66219	337.5
1096	3.41970e+02	1.09600e+03	2.65683	338.0
1097	3.42466e+02	1.09700e+03	2.65151	338.5
1098	3.42945e+02	1.09800e+03	2.64608	339.0
1099	3.43434e+02	1.09900e+03	2.64055	339.5
1100	3.43937e+02	1.10000e+03	2.63455	340.0
1101	3.44431e+02	1.10100e+03	2.62856	340.5
1102	3.44920e+02	1.10200e+03	2.62244	341.0
1103	3.45420e+02	1.10300e+03	2.61619	341.5
1104	3.45910e+02	1.10400e+03	2.60933	342.0
1105	3.46383e+02	1.10500e+03	2.60254	342.5
1106	3.46873e+02	1.10600e+03	2.5956	343.0
1107	3.47355e+02	1.10700e+03	2.58853	343.5
1108	3.47843e+02	1.10800e+03	2.58078	344.0
1109	3.48326e+02	1.10900e+03	2.57311	344.5
1110	3.48835e+02	1.11000e+03	2.56529	345.0
1111	3.49333e+02	1.11100e+03	2.55733	345.5
1112	3.49820e+02	1.11200e+03	2.54866	346.0
1113	3.50331e+02	1.11300e+03	2.54008	346.5
1114	3.50833e+02	1.11400e+03	2.53134	347.0
1115	3.51319e+02	1.11500e+03	2.52245	347.5
1116	3.51822e+02	1.11600e+03	2.51281	348.0
1117	3.52338e+02	1.11700e+03	2.50327	348.5
1118	3.52846e+02	1.11800e+03	2.49356	349.0
1119	3.53365e+02	1.11900e+03	2.48371	349.5
1120	3.53860e+02	1.12000e+03	2.47305	350.0
1121	3.54369e+02	1.12100e+03	2.46248	350.5
1122	3.54921e+02	1.12200e+03	2.4517	351.0
1123	3.55442e+02	1.12300e+03	2.44074	351.5
1124	3.55949e+02	1.12400e+03	2.42888	352.0
1125	3.56449e+02	1.12500e+03	2.41711	352.5
1126	3.56945e+02	1.12600e+03	2.40516	353.0
1127	3.57449e+02	1.12700e+03	2.39305	353.5
1128	3.57947e+02	1.12800e+03	2.38006	354.0
1129	3.58462e+02	1.12900e+03	2.36724	354.5
1130	3.58976e+02	1.13000e+03	2.35429	355.0
1131	3.59474e+02	1.13100e+03	2.34119	355.5
1132	3.59980e+02	1.13200e+03	2.32734	356.0
1133	3.60489e+02	1.13300e+03	2.31354	356.5
1134	3.60976e+02	1.13400e+03	2.29952	357.0
1135	3.61475e+02	1.13500e+03	2.28533	357.5
1136	3.61963e+02	1.13600e+03	2.27024	358.0
1137	3.62460e+02	1.13700e+03	2.2553	358.5
1138	3.62949e+02	1.13800e+03	2.24022	359.0
1139	3.63447e+02	1.13900e+03	2.225	359.5
1140	3.63931e+02	1.14000e+03	2.20895	360.0
1141	3.64437e+02	1.14100e+03	2.19301	360.5
1142	3.64917e+02	1.14200e+03	2.17687	361.0
1143	3.65416e+02	1.14300e+03	2.16055	361.5
1144	3.65900e+02	1.14400e+03	2.14342	362.0
1145	3.66401e+02	1.14500e+03	2.12639	362.5
1146	3.66895e+02	1.14600e+03	2.10919	363.0
1147	3.67398e+02	1.14700e+03	2.09184	363.5
1148	3.67889e+02	1.14800e+03	2.07368	364.0
1149	3.68389e+02	1.14900e+03	2.05567	364.5
1150	3.68881e+02	1.15000e+03	2.03751	365.0
1151	3.69377e+02	1.15100e+03	2.01921	365.5
1152	3.69872e+02	1.15200e+03	2.00021	366.0
1153	3.70365e+02	1.15300e+03	1.98129	366.5
1154	3.70878e+02	1.15400e+03	1.96223	367.0
1155	3.71349e+02	1.15500e+03	1.94303	367.5
1156	3.71832e+02	1.15600e+03	1.92311	368.0
1157	3.72320e+02	1.15700e+03	1.9033	368.5
1158	3.72810e+02	1.15800e+03	1.88332	369.0
1159	3.73314e+02	1.15900e+03	1.8632	369.5
1160	3.73803e+02	1.16000e+03	1.84236	370.0
1161	3.74308e+02	1.16100e+03	1.8216	370.5
1162	3.74811e+02	1.16200e+03	1.80071	371.0
1163	3.75307e+02	1.16300e+03	1.77969	371.5
1164	3.75812e+02	1.16400e+03	1.75799	372.0
1165	3.76324e+02	1.16500e+03	1.73643	372.5
1166	3.76819e+02	1.16600e+03	1.71477	373.0
1167	3.77319e+02	1.16700e+03	1.693	373.5
1168	3.77824e+02	1.16800e+03	1.67071	374.0
1169	3.78315e+02	1.16900e+03	1.6485	374.5
1170	3.78803e+02	1.17000e+03	1.62621	375.0
1171	3.79306e+02	1.17100e+03	1.60383	375.5
1172	3.79816e+02	1.17200e+03	1.58097	376.0
1173	3.80321e+02	1.17300e+03	1.55818	376.5
1174	3.80809e+02	1.17400e+03	1.5353	377.0
1175	3.81305e+02	1.17500e+03	1.51232	377.5
1176	3.81802e+02	1.17600e+03	1.48886	378.0
1177	3.82309e+02	1.17700e+03	1.46545	378.5
1178	3.82775e+02	1.17800e+03	1.44197	379.0
1179	3.83266e+02	1.17900e+03	1.41841	379.5
1180	3.83768e+02	1.18000e+03	1.39448	380.0
1181	3.84235e+02	1.18100e+03	1.37069	380.5
1182	3.84725e+02	1.18200e+03	1.3469	381.0
1183	3.85215e+02	1.18300e+03	1.32308	381.5
1184	3.85719e+02	1.18400e+03	1.29912	382.0
1185	3.86255e+02	1.18500e+03	1.27517	382.5
1186	3.86776e+02	1.18600e+03	1.25119	383.0
1187	3.87283e+02	1.18700e+03	1.2272	383.5
1188	3.87808e+02	1.18800e+03	1.2031	384.0
1189	3.88327e+02	1.18900e+03	1.17907	384.5
1190	3.88829e+02	1.19000e+03	1.15508	385.0
1191	3.89336e+02	1.19100e+03	1.13112	385.5
1192	3.89856e+02	1.19200e+03	1.10724	386.0
1193	3.90352e+02	1.19300e+03	1.08341	386.5
1194	3.90853e+02	1.19400e+03	1.05964	387.0
1195	3.91349e+02	1.19500e+03	1.03593	387.5
1196	3.91837e+02	1.19600e+03	1.0125	388.0
1197	3.92326e+02	1.19700e+03	0.989075	388.5
1198	3.92819e+02	1.19800e+03	0.965745	389.0
1199	3.93312e+02	1.19900e+03	0.942498	389.5
1200	3.93799e+02	1.20000e+03	0.919653	390.0
1201	3.94301e+02	1.20100e+03	0.896774	390.5
1202	3.94823e+02	1.20200e+03	0.873999	391.0
1203	3.95317e+02	1.20300e+03	0.851317	391.5
1204	3.95808e+02	1.20400e+03	0.829167	392.0
1205	3.96311e+02	1.20500e+03	0.807001	392.5
1206	3.96827e+02	1.20600e+03	0.785002	393.0
1207	3.97318e+02	1.20700e+03	0.76315	393.5
1208	3.97798e+02	1.20800e+03	0.742025	394.0
1209	3.98300e+02	1.20900e+03	0.720856	394.5
1210	3.98818e+02	1.21000e+03	0.699878	395.0
1211	3.99330e+02	1.21100e+03	0.679066	395.5
1212	3.99828e+02	1.21200e+03	0.659129	396.0
1213	4.00326e+02	1.21300e+03	0.639099	396.5
1214	4.00847e+02	1.21400e+03	0.619281	397.0
1215	4.01397e+02	1.21500e+03	0.599655	397.5
1216	4.01923e+02	1.21600e+03	0.580996	398.0
1217	4.02439e+02	1.21700e+03	0.562246	398.5
1218	4.02972e+02	1.21800e+03	0.543733	399.0
1219	4.03466e+02	1.21900e+03	0.525426	399.5
1220	4.03952e+02	1.22000e+03	0.508205	400.0
1221	4.04445e+02	1.22100e+03	0.490863	400.5
1222	4.04935e+02	1.22200e+03	0.47378	401.0
1223	4.05424e+02	1.22300e+03	0.456929	401.5
1224	4.05925e+02	1.22400e+03	0.441247	402.0
1225	4.06433e+02	1.22500e+03	0.425439	402.5
1226	4.06942e+02	1.22600e+03	0.409893	403.0
1227	4.07454e+02	1.22700e+03	0.394589	403.5
1228	4.07968e+02	1.22800e+03	0.380528	404.0
1229	4.08481e+02	1.22900e+03	0.366294	404.5
1230	4.08969e+02	1.23000e+03	0.352321	405.0
1231	4.09467e+02	1.23100e+03	0.338593	405.5
1232	4.09993e+02	1.23200e+03	0.326097	406.0
1233	4.10515e+02	1.23300e+03	0.313441	406.5
1234	4.11018e+02	1.23400e+03	0.301044	407.0
1235	4.11535e+02	1.23500e+03	0.288884	407.5
1236	4.12052e+02	1.23600e+03	0.277945	408.0
1237	4.12566e+02	1.23700e+03	0.266817	408.5
1238	4.13074e+02	1.23800e+03	0.255921	409.0
1239	4.13576e+02	1.23900e+03	0.245246	409.5
1240	4.14096e+02	1.24000e+03	0.235705	410.0
1241	4.14622e+02	1.24100e+03	0.225985	410.5
1242	4.15180e+02	1.24200e+03	0.216472	411.0
1243	4.15697e+02	1.24300e+03	0.207158	411.5
1244	4.16229e+02	1.24400e+03	0.198867	412.0
1245	4.16745e+02	1.24500e+03	0.190411	412.5
1246	4.17253e+02	1.24600e+03	0.182147	413.0
1247	4.17775e+02	1.24700e+03	0.174068	413.5
1248	4.18278e+02	1.24800e+03	0.166936	414.0
1249	4.18780e+02	1.24900e+03	0.159679	414.5
1250	4.19283e+02	1.25000e+03	0.152614	415.0
1251	4.19793e+02	1.25100e+03	0.145725	415.5
1252	4.20302e+02	1.25200e+03	0.139752	416.0
1253	4.20807e+02	1.25300e+03	0.133629	416.5
1254	4.21316e+02	1.25400e+03	0.127672	417.0
1255	4.21841e+02	1.25500e+03	0.121872	417.5
1256	4.22362e+02	1.25600e+03	0.116889	418.0
1257	4.22891e+02	1.25700e+03	0.111775	418.5
1258	4.23383e+02	1.25800e+03	0.10681	419.0
1259	4.23880e+02	1.25900e+03	0.101986	419.5
1260	4.24393e+02	1.26000e+03	0.0978808	420.0
1261	4.24936e+02	1.26100e+03	0.0936501	420.5
1262	4.25439e+02	1.26200e+03	0.0895446	421.0
1263	4.25944e+02	1.26300e+03	0.0855617	421.5
1264	4.26445e+02	1.26400e+03	0.0822086	422.0
1265	4.26945e+02	1.26500e+03	0.0787616	422.5
1266	4.27457e+02	1.26600e+03	0.0754382	423.0
1267	4.27950e+02	1.26700e+03	0.072231	423.5
1268	4.28418e+02	1.26800e+03	0.069605	424.0
1269	4.28890e+02	1.26900e+03	0.0668793	424.5
1270	4.29387e+02	1.27000e+03	0.0642484	425.0
1271	4.29892e+02	1.27100e+03	0.0617087	425.5
1272	4.30390e+02	1.27200e+03	0.0596551	426.0
1273	4.30885e+02	1.27300e+03	0.0575018	426.5
1274	4.31381e+02	1.27400e+03	0.0554234	427.0
1275	4.31879e+02	1.27500e+03	0.0534213	427.5
1276	4.32382e+02	1.27600e+03	0.0517992	428.0
1277	4.32869e+02	1.27700e+03	0.050111	428.5
1278	4.33361e+02	1.27800e+03	0.0484799	429.0
1279	4.33842e+02	1.27900e+03	0.0469054	429.5
1280	4.34308e+02	1.28000e+03	0.0456447	430.0
1281	4.34799e+02	1.28100e+03	0.0443194	430.5
1282	4.35286e+02	1.28200e+03	0.043043	431.0
1283	4.35772e+02	1.28300e+03	0.0418167	431.5
1284	4.36264e+02	1.28400e+03	0.040832	432.0
1285	4.36752e+02	1.28500e+03	0.039809	432.5
1286	4.37240e+02	1.28600e+03	0.0388268	433.0
1287	4.37722e+02	1.28700e+03	0.037883	433.5
1288	4.38215e+02	1.28800e+03	0.0371491	434.0
1289	4.38708e+02	1.28900e+03	0.0363715	434.5
1290	4.39224e+02	1.29000e+03	0.035625	435.0
1291	4.39731e+02	1.29100e+03	0.0349101	435.5
1292	4.40219e+02	1.29200e+03	0.0343548	436.0
1293	4.40709e+02	1.29300e+03	0.0337692	436.5
1294	4.41210e+02	1.29400e+03	0.0332058	437.0
1295	4.41718e+02	1.29500e+03	0.0326647	437.5
1296	4.42214e+02	1.29600e+03	0.032243	438.0
1297	4.42717e+02	1.29700e+03	0.0317918	438.5
1298	4.43203e+02	1.29800e+03	0.0313566	439.0
1299	4.43687e+02	1.29900e+03	0.0309388	439.5
1300	4.44179e+02	1.30000e+03	0.0305966	440.0
1301	4.44673e+02	1.30100e+03	0.0302376	440.5
1302	4.45180e+02	1.30200e+03	0.029886	441.0
1303	4.45679e+02	1.30300e+03	0.0295423	441.5
1304	4.46181e+02	1.30400e+03	0.0292499	442.0
1305	4.46677e+02	1.30500e+03	0.0289454	442.5
1306	4.47158e+02	1.30600e+03	0.0286494	443.0
1307	4.47625e+02	1.30700e+03	0.028362	443.5
1308	4.48163e+02	1.30800e+03	0.0281148	444.0
1309	4.48642e+02	1.30900e+03	0.0278683	444.5
1310	4.49122e+02	1.31000e+03	0.0276328	445.0
1311	4.49584e+02	1.31100e+03	0.0274059	445.5
1312	4.50058e+02	1.31200e+03	0.0272267	446.0
1313	4.50528e+02	1.31300e+03	0.0270335	446.5
1314	4.51030e+02	1.31400e+03	0.0268437	447.0
1315	4.51533e+02	1.31500e+03	0.0266583	447.5
1316	4.52033e+02	1.31600e+03	0.0265012	448.0
1317	4.52525e+02	1.31700e+03	0.0263417	448.5
1318	4.53020e+02	1.31800e+03	0.0261882	449.0
1319	4.53534e+02	1.31900e+03	0.0260404	449.5
1320	4.54054e+02	1.32000e+03	0.0259209	450.0
1321	4.54574e+02	1.32100e+03	0.025798	450.5
1322	4.55074e+02	1.32200e+03	0.025683	451.0
1323	4.55575e+02	1.32300e+03	0.0255755	451.5
1324	4.56055e+02	1.32400e+03	0.0255058	452.0
1325	4.56554e+02	1.32500e+03	0.025433	452.5
1326	4.57053e+02	1.32600e+03	0.0253631	453.0
1327	4.57537e+02	1.32700e+03	0.0252946	453.5
1328	4.57999e+02	1.32800e+03	0.0252425	454.0
1329	4.58483e+02	1.32900e+03	0.0251716	454.5
1330	4.58988e+02	1.33000e+03	0.025097	455.0
1331	4.59493e+02	1.33100e+03	0.0250232	455.5
1332	4.59977e+02	1.33200e+03	0.0249452	456.0
1333	4.60496e+02	1.33300e+03	0.0248903	456.5
1334	4.61049e+02	1.33400e+03	0.0248516	457.0
1335	4.61588e+02	1.33500e+03	0.0248223	457.5
1336	4.62094e+02	1.33600e+03	0.024844	458.0
1337	4.62667e+02	1.33700e+03	0.0248507	458.5
1338	4.63220e+02	1.33800e+03	0.024856	459.0
1339	4.63809e+02	1.33900e+03	0.0248617	459.5
1340	4.64293e+02	1.34000e+03	0.0248717	460.0
1341	4.64762e+02	1.34100e+03	0.0248588	460.5
1342	4.65302e+02	1.34200e+03	0.0248368	461.0
1343	4.65845e+02	1.34300e+03	0.0248119	461.5
1344	4.66156e+02	1.34400e+03	0.0247517	462.0
1345	4.66896e+02	1.34500e+03	0.0247112	462.5
1346	4.67753e+02	1.34600e+03	0.0246733	463.0
1347	4.68307e+02	1.34700e+03	0.0246339	463.5
1348	4.68684e+02	1.34800e+03	0.0245879	464.0
1349	4.69118e+02	1.34900e+03	0.0245314	464.5
1350	4.69452e+02	1.35000e+03	0.0244705	465.0
1351	4.69828e+02	1.35100e+03	0.0244109	465.5
1352	4.70279e+02	1.35200e+03	0.0243556	466.0
1353	4.70767e+02	1.35300e+03	0.0243249	466.5
1354	4.71248e+02	1.35400e+03	0.0243112	467.0
1355	4.71733e+02	1.35500e+03	0.0243065	467.5
1356	4.72213e+02	1.35600e+03	0.0243487	468.0
1357	4.72727e+02	1.35700e+03	0.0243669	468.5
1358	4.73271e+02	1.35800e+03	0.0243775	469.0
1359	4.73755e+02	1.35900e+03	0.024385	469.5
1360	4.74289e+02	1.36000e+03	0.0243864	470.0
1361	4.74762e+02	1.36100e+03	0.0243826	470.5
1362	4.75188e+02	1.36200e+03	0.024376	471.0
1363	4.75669e+02	1.36300e+03	0.0243682	471.5
1364	4.76133e+02	1.36400e+03	0.0243522	472.0
1365	4.76653e+02	1.36500e+03	0.0243562	472.5
1366	4.77190e+02	1.36600e+03	0.0243707	473.0
1367	4.77664e+02	1.36700e+03	0.0243878	473.5
1368	4.78129e+02	1.36800e+03	0.0244095	474.0
1369	4.78569e+02	1.36900e+03	0.0244043	474.5
1370	4.78837e+02	1.37000e+03	0.0243807	475.0
1371	4.79277e+02	1.37100e+03	0.024347	475.5
1372	4.79693e+02	1.37200e+03	0.0242745	476.0
1373	4.80158e+02	1.37300e+03	0.0242262	476.5
1374	4.80570e+02	1.37400e+03	0.0241882	477.0
1375	4.81035e+02	1.37500e+03	0.0241551	477.5
1376	4.81551e+02	1.37600e+03	0.0241313	478.0
1377	4.82022e+02	1.37700e+03	0.024111	478.5
1378	4.82440e+02	1.37800e+03	0.0240917	479.0
1379	4.82899e+02	1.37900e+03	0.0240724	479.5
1380	4.83387e+02	1.38000e+03	0.0240724	480.0
1381	4.83864e+02	1.38100e+03	0.0240628	480.5
1382	4.84372e+02	1.38200e+03	0.024054	481.0
1383	4.84827e+02	1.38300e+03	0.0240465	481.5
1384	4.85283e+02	1.38400e+03	0.0240329	482.0
1385	4.85741e+02	1.38500e+03	0.0240191	482.5
1386	4.86198e+02	1.38600e+03	0.0240014	483.0
1387	4.86700e+02	1.38700e+03	0.0239805	483.5
1388	4.87158e+02	1.38800e+03	0.0239557	484.0
1389	4.87605e+02	1.38900e+03	0.0239355	484.5
1390	4.88071e+02	1.39000e+03	0.0239206	485.0
1391	4.88537e+02	1.39100e+03	0.0239096	485.5
1392	4.89013e+02	1.39200e+03	0.0239057	486.0
1393	4.89487e+02	1.39300e+03	0.0239035	486.5
1394	4.89970e+02	1.39400e+03	0.0239006	487.0
1395	4.90448e+02	1.39500e+03	0.0238956	487.5
1396	4.90929e+02	1.39600e+03	0.0238976	488.0
1397	4.91411e+02	1.39700e+03	0.0238918	488.5
1398	4.91915e+02	1.39800e+03	0.0238848	489.0
1399	4.92471e+02	1.39900e+03	0.0238787	489.5
1400	4.93014e+02	1.40000e+03	0.0238673	490.0
1401	4.93527e+02	1.40100e+03	0.023863	490.5
1402	4.94011e+02	1.40200e+03	0.0238578	491.0
1403	4.94498e+02	1.40300e+03	0.0238497	491.5
1404	4.94968e+02	1.40400e+03	0.0238409	492.0
1405	4.95414e+02	1.40500e+03	0.0238253	492.5
1406	4.95871e+02	1.40600e+03	0.0238092	493.0
1407	4.96419e+02	1.40700e+03	0.0237941	493.5
1408	4.96933e+02	1.40800e+03	0.0237699	494.0
1409	4.97408e+02	1.40900e+03	0.0237555	494.5
1410	4.97912e+02	1.41000e+03	0.0237408	495.0
1411	4.98405e+02	1.41100e+03	0.0237236	495.5
1412	4.98971e+02	1.41200e+03	0.0237112	496.0
1413	4.99497e+02	1.41300e+03	0.0236921	496.5
1414	4.99878e+02	1.41400e+03	0.0236737	497.0
1415	5.00448e+02	1.41500e+03	0.0236574	497.5
1416	5.01078e+02	1.41600e+03	0.0236391	498.0
1417	5.01585e+02	1.41700e+03	0.0236301	498.5
1418	5.02115e+02	1.41800e+03	0.0236218	499.0
1419	5.02608e+02	1.41900e+03	0.0236113	499.5
1420	5.03001e+02	1.42000e+03	0.0236025	500.0
1421	5.03440e+02	1.42100e+03	0.0235784	500.5
1422	5.03922e+02	1.42200e+03	0.0235454	501.0
1423	5.04405e+02	1.42300e+03	0.0235075	501.5
1424	5.04832e+02	1.42400e+03	0.0234378	502.0
1425	5.05296e+02	1.42500e+03	0.0233801	502.5
1426	5.05757e+02	1.42600e+03	0.0233221	503.0
1427	5.06228e+02	1.42700e+03	0.0232632	503.5
1428	5.06689e+02	1.42800e+03	0.0232054	504.0
1429	5.07161e+02	1.42900e+03	0.0231583	504.5
1430	5.07661e+02	1.43000e+03	0.0231227	505.0
1431	5.08205e+02	1.43100e+03	0.0230959	505.5
1432	5.08717e+02	1.43200e+03	0.0231108	506.0
1433	5.09162e+02	1.43300e+03	0.023127	506.5
1434	5.09602e+02	1.43400e+03	0.0231518	507.0
1435	5.10059e+02	1.43500e+03	0.0231818	507.5
1436	5.10545e+02	1.43600e+03	0.0232463	508.0
1437	5.11044e+02	1.43700e+03	0.0232818	508.5
1438	5.11531e+02	1.43800e+03	0.0233042	509.0
1439	5.12013e+02	1.43900e+03	0.0233207	509.5
1440	5.12512e+02	1.44000e+03	0.0233115	510.0
1441	5.12991e+02	1.44100e+03	0.0233103	510.5
1442	5.13468e+02	1.44200e+03	0.0233092	511.0
1443	5.13938e+02	1.44300e+03	0.0233069	511.5
1444	5.14412e+02	1.44400e+03	0.0232883	512.0
1445	5.14892e+02	1.44500e+03	0.0232736	512.5
1446	5.15388e+02	1.44600e+03	0.0232555	513.0
1447	5.15875e+02	1.44700e+03	0.0232346	513.5
1448	5.16351e+02	1.44800e+03	0.0232098	514.0
1449	5.16842e+02	1.44900e+03	0.0231915	514.5
1450	5.17333e+02	1.45000e+03	0.02318	515.0
1451	5.17853e+02	1.45100e+03	0.0231732	515.5
1452	5.18357e+02	1.45200e+03	0.0231768	516.0
1453	5.18831e+02	1.45300e+03	0.0231799	516.5
1454	5.19301e+02	1.45400e+03	0.0231832	517.0
1455	5.19795e+02	1.45500e+03	0.023187	517.5
1456	5.20284e+02	1.45600e+03	0.023202	518.0
1457	5.20780e+02	1.45700e+03	0.023209	518.5
1458	5.21284e+02	1.45800e+03	0.0232138	519.0
1459	5.21784e+02	1.45900e+03	0.0232176	519.5
1460	5.22281e+02	1.46000e+03	0.0232141	520.0
1461	5.22769e+02	1.46100e+03	0.0232102	520.5
1462	5.23271e+02	1.46200e+03	0.0232019	521.0
1463	5.23779e+02	1.46300e+03	0.0231903	521.5
1464	5.24279e+02	1.46400e+03	0.023167	522.0
1465	5.24770e+02	1.46500e+03	0.0231442	522.5
1466	5.25264e+02	1.46600e+03	0.0231207	523.0
1467	5.25758e+02	1.46700e+03	0.0230967	523.5
1468	5.26256e+02	1.46800e+03	0.0230654	524.0
1469	5.26732e+02	1.46900e+03	0.0230419	524.5
1470	5.27209e+02	1.47000e+03	0.0230224	525.0
1471	5.27709e+02	1.47100e+03	0.0230054	525.5
1472	5.28212e+02	1.47200e+03	0.0230091	526.0
1473	5.28705e+02	1.47300e+03	0.0230187	526.5
1474	5.29206e+02	1.47400e+03	0.0230396	527.0
1475	5.29692e+02	1.47500e+03	0.0230684	527.5
1476	5.30176e+02	1.47600e+03	0.0231299	528.0
1477	5.30673e+02	1.47700e+03	0.0231766	528.5
1478	5.31185e+02	1.47800e+03	0.0232162	529.0
1479	5.31685e+02	1.47900e+03	0.0232509	529.5
1480	5.32195e+02	1.48000e+03	0.0232765	530.0
1481	5.32715e+02	1.48100e+03	0.0232909	530.5
1482	5.33263e+02	1.48200e+03	0.0232984	531.0
1483	5.33805e+02	1.48300e+03	0.0233027	531.5
1484	5.34330e+02	1.48400e+03	0.0232751	532.0
1485	5.34861e+02	1.48500e+03	0.0232642	532.5
1486	5.35418e+02	1.48600e+03	0.023255	533.0
1487	5.35930e+02	1.48700e+03	0.0232447	533.5
1488	5.36421e+02	1.48800e+03	0.0232335	534.0
1489	5.36884e+02	1.48900e+03	0.0232214	534.5
1490	5.37372e+02	1.49000e+03	0.0232112	535.0
1491	5.37907e+02	1.49100e+03	0.0232023	535.5
1492	5.38446e+02	1.49200e+03	0.0231903	536.0
1493	5.39083e+02	1.49300e+03	0.0231744	536.5
1494	5.39618e+02	1.49400e+03	0.023148	537.0
1495	5.40100e+02	1.49500e+03	0.0231122	537.5
1496	5.40609e+02	1.49600e+03	0.0230564	538.0
1497	5.41109e+02	1.49700e+03	0.0230095	538.5
1498	5.41610e+02	1.49800e+03	0.0229765	539.0
1499	5.42077e+02	1.49900e+03	0.0229544	539.5
1500	5.42569e+02	1.50000e+03	0.022944	540.0
1501	5.43063e+02	1.50100e+03	0.0229447	540.5
1502	5.43562e+02	1.50200e+03	0.0229388	541.0
1503	5.44056e+02	1.50300e+03	0.0229221	541.5
1504	5.44531e+02	1.50400e+03	0.0229213	542.0
1505	5.45049e+02	1.50500e+03	0.0228935	542.5
1506	5.45515e+02	1.50600e+03	0.0228702	543.0
1507	5.45994e+02	1.50700e+03	0.0228602	543.5
1508	5.46438e+02	1.50800e+03	0.0228651	544.0
1509	5.46912e+02	1.50900e+03	0.0229268	544.5
1510	5.47424e+02	1.51000e+03	0.0230138	545.0
1511	5.47929e+02	1.51100e+03	0.0231036	545.5
1512	5.48472e+02	1.51200e+03	0.0232316	546.0
1513	5.48988e+02	1.51300e+03	0.0232511	546.5
1514	5.49481e+02	1.51400e+03	0.023211	547.0
1515	5.49946e+02	1.51500e+03	0.0231425	547.5
1516	5.50387e+02	1.51600e+03	0.0229241	548.0
1517	5.50820e+02	1.51700e+03	0.0227934	548.5
1518	5.51288e+02	1.51800e+03	0.0226966	549.0
1519	5.51744e+02	1.51900e+03	0.0226169	549.5
1520	5.52212e+02	1.52000e+03	0.0225811	550.0
1521	5.52667e+02	1.52100e+03	0.0225595	550.5
1522	5.53119e+02	1.52200e+03	0.022552	551.0
1523	5.53565e+02	1.52300e+03	0.0225524	551.5
1524	5.54025e+02	1.52400e+03	0.0226306	552.0
1525	5.54503e+02	1.52500e+03	0.022667	552.5
1526	5.54994e+02	1.52600e+03	0.0226963	553.0
1527	5.55465e+02	1.52700e+03	0.0227245	553.5
1528	5.55952e+02	1.52800e+03	0.0227346	554.0
1529	5.56451e+02	1.52900e+03	0.0227446	554.5
1530	5.56952e+02	1.53000e+03	0.0227474	555.0
1531	5.57428e+02	1.53100e+03	0.022745	555.5
1532	5.57916e+02	1.53200e+03	0.0227173	556.0
1533	5.58390e+02	1.53300e+03	0.0226906	556.5
1534	5.58866e+02	1.53400e+03	0.0226581	557.0
1535	5.59348e+02	1.53500e+03	0.0226205	557.5
1536	5.59844e+02	1.53600e+03	0.0225606	558.0
1537	5.60346e+02	1.53700e+03	0.0225157	558.5
1538	5.60844e+02	1.53800e+03	0.0224825	559.0
1539	5.61360e+02	1.53900e+03	0.0224582	559.5
1540	5.61860e+02	1.54000e+03	0.0224644	560.0
1541	5.62333e+02	1.54100e+03	0.0224817	560.5
1542	5.62814e+02	1.54200e+03	0.0225112	561.0
1543	5.63298e+02	1.54300e+03	0.0225469	561.5
1544	5.63784e+02	1.54400e+03	0.0226248	562.0
1545	5.64259e+02	1.54500e+03	0.0226677	562.5
1546	5.64755e+02	1.54600e+03	0.0226921	563.0
1547	5.65239e+02	1.54700e+03	0.0227059	563.5
1548	5.65730e+02	1.54800e+03	0.0226779	564.0
1549	5.66215e+02	1.54900e+03	0.0226577	564.5
1550	5.66701e+02	1.55000e+03	0.0226373	565.0
1551	5.67199e+02	1.55100e+03	0.0226163	565.5
1552	5.67683e+02	1.55200e+03	0.0225692	566.0
1553	5.68151e+02	1.55300e+03	0.0225392	566.5
1554	5.68642e+02	1.55400e+03	0.0225098	567.0
1555	5.69135e+02	1.55500e+03	0.0224785	567.5
1556	5.69616e+02	1.55600e+03	0.022455	568.0
1557	5.70093e+02	1.55700e+03	0.0224245	568.5
1558	5.70590e+02	1.55800e+03	0.0223961	569.0
1559	5.71061e+02	1.55900e+03	0.0223706	569.5
1560	5.71552e+02	1.56000e+03	0.0223448	570.0
1561	5.72044e+02	1.56100e+03	0.0223274	570.5
1562	5.72540e+02	1.56200e+03	0.0223141	571.0
1563	5.73046e+02	1.56300e+03	0.0223022	571.5
1564	5.73554e+02	1.56400e+03	0.022307	572.0
1565	5.74076e+02	1.56500e+03	0.0223047	572.5
1566	5.74585e+02	1.56600e+03	0.0223029	573.0
1567	5.75081e+02	1.56700e+03	0.0223023	573.5
1568	5.75592e+02	1.56800e+03	0.0223091	574.0
1569	5.76093e+02	1.56900e+03	0.0223179	574.5
1570	5.76589e+02	1.57000e+03	0.0223259	575.0
1571	5.77094e+02	1.57100e+03	0.0223325	575.5
1572	5.77605e+02	1.57200e+03	0.0223391	576.0
1573	5.78100e+02	1.57300e+03	0.0223359	576.5
1574	5.78622e+02	1.57400e+03	0.0223285	577.0
1575	5.79116e+02	1.57500e+03	0.0223192	577.5
1576	5.79611e+02	1.57600e+03	0.0222949	578.0
1577	5.80104e+02	1.57700e+03	0.022284	578.5
1578	5.80591e+02	1.57800e+03	0.0222801	579.0
1579	5.80884e+02	1.57900e+03	0.0222798	579.5
1580	5.82122e+02	1.58000e+03	0.0222981	580.0
1581	5.82275e+02	1.58100e+03	0.0223181	580.5
1582	5.82638e+02	1.58200e+03	0.0223442	581.0
1583	5.83057e+02	1.58300e+03	0.0223743	581.5
1584	5.83501e+02	1.58400e+03	0.0224247	582.0
1585	5.84011e+02	1.58500e+03	0.0224604	582.5
1586	5.84470e+02	1.58600e+03	0.022484	583.0
1587	5.84935e+02	1.58700e+03	0.0224971	583.5
1588	5.85411e+02	1.58800e+03	0.0224707	584.0
1589	5.85894e+02	1.58900e+03	0.0224309	584.5
1590	5.86373e+02	1.59000e+03	0.0223753	585.0
1591	5.86856e+02	1.59100e+03	0.0223102	585.5
1592	5.87332e+02	1.59200e+03	0.0221891	586.0
1593	5.87806e+02	1.59300e+03	0.0221123	586.5
1594	5.88293e+02	1.59400e+03	0.0220564	587.0
1595	5.88784e+02	1.59500e+03	0.0220115	587.5
1596	5.89261e+02	1.59600e+03	0.0220079	588.0
1597	5.89714e+02	1.59700e+03	0.0219985	588.5
1598	5.90204e+02	1.59800e+03	0.0219906	589.0
1599	5.90693e+02	1.59900e+03	0.021983	589.5
1600	5.91187e+02	1.60000e+03	0.0219922	590.0
1601	5.91690e+02	1.60100e+03	0.0219729	590.5
1602	5.92173e+02	1.60200e+03	0.0219378	591.0
1603	5.92660e+02	1.60300e+03	0.0218948	591.5
1604	5.93131e+02	1.60400e+03	0.0218154	592.0
1605	5.93615e+02	1.60500e+03	0.0217554	592.5
1606	5.94103e+02	1.60600e+03	0.0217012	593.0
1607	5.94586e+02	1.60700e+03	0.0216509	593.5
1608	5.95087e+02	1.60800e+03	0.021625	594.0
1609	5.95581e+02	1.60900e+03	0.0216125	594.5
1610	5.96080e+02	1.61000e+03	0.0216154	595.0
1611	5.96537e+02	1.61100e+03	0.0216282	595.5
1612	5.97021e+02	1.61200e+03	0.0216897	596.0
1613	5.97486e+02	1.61300e+03	0.0217271	596.5
1614	5.97958e+02	1.61400e+03	0.021759	597.0
1615	5.98433e+02	1.61500e+03	0.0217895	597.5
1616	5.98919e+02	1.61600e+03	0.021816	598.0
1617	5.99396e+02	1.61700e+03	0.0218382	598.5
1618	5.99887e+02	1.61800e+03	0.0218577	599.0
1619	6.00366e+02	1.61900e+03	0.0218754	599.5
1620	6.00854e+02	1.62000e+03	0.0218752	600.0
1621	6.01331e+02	1.62100e+03	0.0218795	600.5
1622	6.01808e+02	1.62200e+03	0.0218812	601.0
1623	6.02307e+02	1.62300e+03	0.0218803	601.5
1624	6.02798e+02	1.62400e+03	0.0218746	602.0
1625	6.03290e+02	1.62500e+03	0.021874	602.5
1626	6.03776e+02	1.62600e+03	0.0218771	603.0
1627	6.04277e+02	1.62700e+03	0.0218822	603.5
1628	6.04765e+02	1.62800e+03	0.0218891	604.0
1629	6.05255e+02	1.62900e+03	0.0218912	604.5
1630	6.05747e+02	1.63000e+03	0.0218867	605.0
1631	6.06236e+02	1.63100e+03	0.0218771	605.5
1632	6.06729e+02	1.63200e+03	0.0218588	606.0
1633	6.07228e+02	1.63300e+03	0.0218442	606.5
1634	6.07720e+02	1.63400e+03	0.0218327	607.0
1635	6.08210e+02	1.63500e+03	0.0218224	607.5
1636	6.08705e+02	1.63600e+03	0.0218063	608.0
1637	6.09192e+02	1.63700e+03	0.0217955	608.5
1638	6.09691e+02	1.63800e+03	0.0217848	609.0
1639	6.10174e+02	1.63900e+03	0.0217731	609.5
1640	6.10664e+02	1.64000e+03	0.0217669	610.0
1641	6.11168e+02	1.64100e+03	0.0217578	610.5
1642	6.11652e+02	1.64200e+03	0.0217505	611.0
1643	6.12143e+02	1.64300e+03	0.0217455	611.5
1644	6.12632e+02	1.64400e+03	0.0217456	612.0
1645	6.13124e+02	1.64500e+03	0.0217496	612.5
1646	6.13612e+02	1.64600e+03	0.0217547	613.0
1647	6.14118e+02	1.64700e+03	0.0217593	613.5
1648	6.14618e+02	1.64800e+03	0.021771	614.0
1649	6.15097e+02	1.64900e+03	0.0217727	614.5
1650	6.15583e+02	1.65000e+03	0.02177	615.0
1651	6.16077e+02	1.65100e+03	0.0217654	615.5
1652	6.16563e+02	1.65200e+03	0.0217464	616.0
1653	6.17056e+02	1.65300e+03	0.0217327	616.5
1654	6.17550e+02	1.65400e+03	0.0217185	617.0
1655	6.18042e+02	1.65500e+03	0.0217026	617.5
1656	6.18538e+02	1.65600e+03	0.0216865	618.0
1657	6.19023e+02	1.65700e+03	0.0216772	618.5
1658	6.19518e+02	1.65800e+03	0.0216743	619.0
1659	6.20007e+02	1.65900e+03	0.0216759	619.5
1660	6.20486e+02	1.66000e+03	0.0216912	620.0
1661	6.20988e+02	1.66100e+03	0.0217022	620.5
1662	6.21478e+02	1.66200e+03	0.0217132	621.0
1663	6.21951e+02	1.66300e+03	0.0217254	621.5
1664	6.22449e+02	1.66400e+03	0.021753	622.0
1665	6.22934e+02	1.66500e+03	0.0217862	622.5
1666	6.23408e+02	1.66600e+03	0.0218313	623.0
1667	6.23903e+02	1.66700e+03	0.0218838	623.5
1668	6.24397e+02	1.66800e+03	0.0219578	624.0
1669	6.24873e+02	1.66900e+03	0.0220167	624.5
1670	6.25365e+02	1.67000e+03	0.0220569	625.0
1671	6.25828e+02	1.67100e+03	0.0220809	625.5
1672	6.26320e+02	1.67200e+03	0.0220567	626.0
1673	6.26809e+02	1.67300e+03	0.022009	626.5
1674	6.27293e+02	1.67400e+03	0.0219425	627.0
1675	6.27782e+02	1.67500e+03	0.0218682	627.5
1676	6.28270e+02	1.67600e+03	0.021723	628.0
1677	6.28762e+02	1.67700e+03	0.0216413	628.5
1678	6.29259e+02	1.67800e+03	0.0215857	629.0
1679	6.29747e+02	1.67900e+03	0.0215414	629.5
1680	6.30251e+02	1.68000e+03	0.0215554	630.0
1681	6.30751e+02	1.68100e+03	0.02155	630.5
1682	6.31244e+02	1.68200e+03	0.0215454	631.0
1683	6.31756e+02	1.68300e+03	0.0215441	631.5
1684	6.32256e+02	1.68400e+03	0.0215702	632.0
1685	6.32775e+02	1.68500e+03	0.021585	632.5
1686	6.33281e+02	1.68600e+03	0.0215983	633.0
1687	6.33804e+02	1.68700e+03	0.0216115	633.5
1688	6.34306e+02	1.68800e+03	0.0216212	634.0
1689	6.34831e+02	1.68900e+03	0.0216275	634.5
1690	6.35351e+02	1.69000e+03	0.0216317	635.0
1691	6.35864e+02	1.69100e+03	0.0216351	635.5
1692	6.36388e+02	1.69200e+03	0.0216317	636.0
1693	6.36887e+02	1.69300e+03	0.0216354	636.5
1694	6.37380e+02	1.69400e+03	0.0216417	637.0
1695	6.37897e+02	1.69500e+03	0.021649	637.5
1696	6.38414e+02	1.69600e+03	0.0216572	638.0
1697	6.38911e+02	1.69700e+03	0.0216592	638.5
1698	6.39411e+02	1.69800e+03	0.0216559	639.0
1699	6.39919e+02	1.69900e+03	0.0216489	639.5
1700	6.40420e+02	1.70000e+03	0.0216277	640.0
1701	6.40927e+02	1.70100e+03	0.021608	640.5
1702	6.41432e+02	1.70200e+03	0.0215869	641.0
1703	6.41943e+02	1.70300e+03	0.0215648	641.5
1704	6.42450e+02	1.70400e+03	0.0215346	642.0
1705	6.42965e+02	1.70500e+03	0.0215114	642.5
1706	6.43480e+02	1.70600e+03	0.0214922	643.0
1707	6.43989e+02	1.70700e+03	0.0214761	643.5
1708	6.44499e+02	1.70800e+03	0.0214772	644.0
1709	6.45015e+02	1.70900e+03	0.0214799	644.5
1710	6.45539e+02	1.71000e+03	0.0214879	645.0
1711	6.46066e+02	1.71100e+03	0.0214995	645.5
1712	6.46578e+02	1.71200e+03	0.0215282	646.0
1713	6.47094e+02	1.71300e+03	0.0215435	646.5
1714	6.47604e+02	1.71400e+03	0.0215528	647.0
1715	6.48109e+02	1.71500e+03	0.0215594	647.5
1716	6.48630e+02	1.71600e+03	0.0215561	648.0
1717	6.49112e+02	1.71700e+03	0.0215563	648.5
1718	6.49604e+02	1.71800e+03	0.0215583	649.0
1719	6.50112e+02	1.71900e+03	0.0215612	649.5
1720	6.50636e+02	1.72000e+03	0.0215594	650.0
1721	6.51148e+02	1.72100e+03	0.0215583	650.5
1722	6.51660e+02	1.72200e+03	0.0215523	651.0
1723	6.52159e+02	1.72300e+03	0.0215419	651.5
1724	6.52666e+02	1.72400e+03	0.0215209	652.0
1725	6.53184e+02	1.72500e+03	0.0214964	652.5
1726	6.53692e+02	1.72600e+03	0.0214722	653.0
1727	6.54205e+02	1.72700e+03	0.0214499	653.5
1728	6.54691e+02	1.72800e+03	0.0214217	654.0
1729	6.55179e+02	1.72900e+03	0.0214075	654.5
1730	6.55676e+02	1.73000e+03	0.0213995	655.0
1731	6.56179e+02	1.73100e+03	0.0213943	655.5
1732	6.56672e+02	1.73200e+03	0.0214134	656.0
1733	6.57154e+02	1.73300e+03	0.0214229	656.5
1734	6.57627e+02	1.73400e+03	0.021434	657.0
1735	6.58094e+02	1.73500e+03	0.0214475	657.5
1736	6.58595e+02	1.73600e+03	0.0214663	658.0
1737	6.59092e+02	1.73700e+03	0.0214819	658.5
1738	6.59582e+02	1.73800e+03	0.0214923	659.0
1739	6.60086e+02	1.73900e+03	0.0214975	659.5
1740	6.60565e+02	1.74000e+03	0.0214882	660.0
1741	6.61062e+02	1.74100e+03	0.0214734	660.5
1742	6.61555e+02	1.74200e+03	0.0214567	661.0
1743	6.62055e+02	1.74300e+03	0.0214404	661.5
1744	6.62552e+02	1.74400e+03	0.0214087	662.0
1745	6.63053e+02	1.74500e+03	0.0213938	662.5
1746	6.63553e+02	1.74600e+03	0.0213829	663.0
1747	6.64050e+02	1.74700e+03	0.0213726	663.5
1748	6.64553e+02	1.74800e+03	0.0213803	664.0
1749	6.65050e+02	1.74900e+03	0.0213795	664.5
1750	6.65541e+02	1.75000e+03	0.0213807	665.0
1751	6.66053e+02	1.75100e+03	0.0213851	665.5
1752	6.66537e+02	1.75200e+03	0.0213958	666.0
1753	6.67013e+02	1.75300e+03	0.021409	666.5
1754	6.67490e+02	1.75400e+03	0.0214214	667.0
1755	6.67983e+02	1.75500e+03	0.021431	667.5
1756	6.68474e+02	1.75600e+03	0.0214399	668.0
1757	6.68970e+02	1.75700e+03	0.0214361	668.5
1758	6.69457e+02	1.75800e+03	0.0214271	669.0
1759	6.69947e+02	1.75900e+03	0.0214182	669.5
1760	6.70443e+02	1.76000e+03	0.0213936	670.0
1761	6.70942e+02	1.76100e+03	0.0213833	670.5
1762	6.71436e+02	1.76200e+03	0.0213759	671.0
1763	6.71941e+02	1.76300e+03	0.021368	671.5
1764	6.72448e+02	1.76400e+03	0.0213672	672.0
1765	6.72948e+02	1.76500e+03	0.0213566	672.5
1766	6.73449e+02	1.76600e+03	0.0213454	673.0
1767	6.73954e+02	1.76700e+03	0.0213369	673.5
1768	6.74454e+02	1.76800e+03	0.0213242	674.0
1769	6.74955e+02	1.76900e+03	0.0213201	674.5
1770	6.75445e+02	1.77000e+03	0.0213185	675.0
1771	6.75938e+02	1.77100e+03	0.0213164	675.5
1772	6.76430e+02	1.77200e+03	0.021318	676.0
1773	6.76924e+02	1.77300e+03	0.0213097	676.5
1774	6.77417e+02	1.77400e+03	0.021301	677.0
1775	6.77898e+02	1.77500e+03	0.021295	677.5
1776	6.78394e+02	1.77600e+03	0.0212898	678.0
1777	6.78886e+02	1.77700e+03	0.0212999	678.5
1778	6.79385e+02	1.77800e+03	0.021318	679.0
1779	6.79873e+02	1.77900e+03	0.0213384	679.5
1780	6.80373e+02	1.78000e+03	0.0213781	680.0
1781	6.80871e+02	1.78100e+03	0.0213948	680.5
1782	6.81363e+02	1.78200e+03	0.0213963	681.0
1783	6.81870e+02	1.78300e+03	0.0213882	681.5
1784	6.82380e+02	1.78400e+03	0.0213447	682.0
1785	6.82880e+02	1.78500e+03	0.0213114	682.5
1786	6.83393e+02	1.78600e+03	0.0212822	683.0
1787	6.83893e+02	1.78700e+03	0.0212552	683.5
1788	6.84385e+02	1.78800e+03	0.0212175	684.0
1789	6.84882e+02	1.78900e+03	0.0211958	684.5
1790	6.85380e+02	1.79000e+03	0.0211813	685.0
1791	6.85881e+02	1.79100e+03	0.0211705	685.5
1792	6.86366e+02	1.79200e+03	0.0211889	686.0
1793	6.86864e+02	1.79300e+03	0.021198	686.5
1794	6.87335e+02	1.79400e+03	0.0212098	687.0
1795	6.87506e+02	1.79500e+03	0.0212255	687.5
1796	6.87691e+02	1.79600e+03	0.0212569	688.0
1797	6.87980e+02	1.79700e+03	0.0212862	688.5
1798	6.88350e+02	1.79800e+03	0.0213147	689.0
1799	6.88714e+02	1.79900e+03	0.0213403	689.5
1800	6.89074e+02	1.80000e+03	0.0213669	690.0
1801	6.89404e+02	1.80100e+03	0.0213796	690.5
1802	6.89721e+02	1.80200e+03	0.0213815	691.0
1803	6.90041e+02	1.80300e+03	0.0213776	691.5
1804	6.90352e+02	1.80400e+03	0.0213513	692.0
1805	6.90645e+02	1.80500e+03	0.0213344	692.5
1806	6.90936e+02	1.80600e+03	0.0213167	693.0
1807	6.91202e+02	1.80700e+03	0.0212979	693.5
1808	6.91469e+02	1.80800e+03	0.0212783	694.0
1809	6.91733e+02	1.80900e+03	0.0212648	694.5
1810	6.91989e+02	1.81000e+03	0.0212569	695.0
1811	6.92234e+02	1.81100e+03	0.0212529	695.5
1812	6.92474e+02	1.81200e+03	0.0212651	696.0
1813	6.92705e+02	1.81300e+03	0.0212805	696.5
1814	6.92952e+02	1.81400e+03	0.0213078	697.0
1815	6.93174e+02	1.81500e+03	0.0213465	697.5
1816	6.93397e+02	1.81600e+03	0.0214313	698.0
1817	6.93612e+02	1.81700e+03	0.0215129	698.5
1818	6.93814e+02	1.81800e+03	0.0215948	699.0
1819	6.94020e+02	1.81900e+03	0.0216734	699.5
1820	6.94198e+02	1.82000e+03	0.0217383	700.0
1821	6.94389e+02	1.82100e+03	0.0217458	700.0
1822	6.94568e+02	1.82200e+03	0.0217084	700.0
1823	6.94740e+02	1.82300e+03	0.0216452	700.0
1824	6.94906e+02	1.82400e+03	0.0214581	700.0
1825	6.95074e+02	1.82500e+03	0.0213307	700.0
1826	6.95238e+02	1.82600e+03	0.0212228	700.0
1827	6.95393e+02	1.82700e+03	0.0211236	700.0
1828	6.95538e+02	1.82800e+03	0.0210409	700.0
1829	6.95689e+02	1.82900e+03	0.0209893	700.0
1830	6.95826e+02	1.83000e+03	0.0209581	700.0
1831	6.95969e+02	1.83100e+03	0.0209374	700.0
1832	6.96115e+02	1.83200e+03	0.0209952	700.0
1833	6.96245e+02	1.83300e+03	0.0210115	700.0
1834	6.96373e+02	1.83400e+03	0.021022	700.0
1835	6.96497e+02	1.83500e+03	0.0210345	700.0
1836	6.96618e+02	1.83600e+03	0.0210501	700.0
1837	6.96732e+02	1.83700e+03	0.0210702	700.0
1838	6.96841e+02	1.83800e+03	0.0210942	700.0
1839	6.96953e+02	1.83900e+03	0.0211208	700.0
1840	6.97068e+02	1.84000e+03	0.0211552	700.0
1841	6.97173e+02	1.84100e+03	0.0211824	700.0
1842	6.97272e+02	1.84200e+03	0.0212061	700.0
1843	6.97364e+02	1.84300e+03	0.0212281	700.0
1844	6.97457e+02	1.84400e+03	0.0212491	700.0
1845	6.97554e+02	1.84500e+03	0.0212735	700.0
1846	6.97638e+02	1.84600e+03	0.0212996	700.0
1847	6.97735e+02	1.84700e+03	0.0213267	700.0
1848	6.97818e+02	1.84800e+03	0.0213555	700.0
1849	6.97899e+02	1.84900e+03	0.0213817	700.0
1850	6.97968e+02	1.85000e+03	0.0214043	700.0
1851	6.98040e+02	1.85100e+03	0.0214231	700.0
1852	6.98103e+02	1.85200e+03	0.0214315	700.0
1853	6.98177e+02	1.85300e+03	0.0214391	700.0
1854	6.98238e+02	1.85400e+03	0.0214407	700.0
1855	6.98304e+02	1.85500e+03	0.0214367	700.0
1856	6.98376e+02	1.85600e+03	0.0214075	700.0
1857	6.98427e+02	1.85700e+03	0.0213818	700.0
1858	6.98492e+02	1.85800e+03	0.0213535	700.0
1859	6.98550e+02	1.85900e+03	0.0213223	700.0
1860	6.98614e+02	1.86000e+03	0.0212746	700.0
1861	6.98674e+02	1.86100e+03	0.021239	700.0
1862	6.98727e+02	1.86200e+03	0.0212091	700.0
1863	6.98780e+02	1.86300e+03	0.0211821	700.0
1864	6.98823e+02	1.86400e+03	0.021174	700.0
1865	6.98887e+02	1.86500e+03	0.0211718	700.0
1866	6.98939e+02	1.86600e+03	0.0211804	700.0
1867	6.98978e+02	1.86700e+03	0.0211978	700.0
1868	6.99031e+02	1.86800e+03	0.0212613	700.0
1869	6.99076e+02	1.86900e+03	0.0213213	700.0
1870	6.99126e+02	1.87000e+03	0.0213891	700.0
1871	6.99155e+02	1.87100e+03	0.0214618	700.0
1872	6.99203e+02	1.87200e+03	0.0215611	700.0
1873	6.99240e+02	1.87300e+03	0.0216346	700.0
1874	6.99282e+02	1.87400e+03	0.0216911	700.0
1875	6.99315e+02	1.87500e+03	0.0217354	700.0
1876	6.99358e+02	1.87600e+03	0.0217295	700.0
1877	6.99397e+02	1.87700e+03	0.0217207	700.0
1878	6.99427e+02	1.87800e+03	0.0217008	700.0
1879	6.99469e+02	1.87900e+03	0.021674	700.0
1880	6.99509e+02	1.88000e+03	0.0215924	700.0
1881	6.99540e+02	1.88100e+03	0.0215391	700.0
1882	6.99572e+02	1.88200e+03	0.0214929	700.0
1883	6.99604e+02	1.88300e+03	0.0214493	700.0
1884	6.99636e+02	1.88400e+03	0.0214181	700.0
1885	6.99671e+02	1.88500e+03	0.0213905	700.0
1886	6.99694e+02	1.88600e+03	0.021372	700.0
1887	6.99717e+02	1.88700e+03	0.0213603	700.0
1888	6.99752e+02	1.88800e+03	0.0213707	700.0
1889	6.99784e+02	1.88900e+03	0.021372	700.0
1890	6.99813e+02	1.89000e+03	0.0213722	700.0
1891	6.99845e+02	1.89100e+03	0.0213725	700.0
1892	6.99866e+02	1.89200e+03	0.0213767	700.0
1893	6.99885e+02	1.89300e+03	0.0213768	700.0
1894	6.99911e+02	1.89400e+03	0.0213792	700.0
1895	6.99924e+02	1.89500e+03	0.0213842	700.0
1896	6.99949e+02	1.89600e+03	0.0213861	700.0
1897	6.99970e+02	1.89700e+03	0.0213905	700.0
1898	6.99998e+02	1.89800e+03	0.0213954	700.0
1899	7.00007e+02	1.89900e+03	0.0214001	700.0
1900	7.00026e+02	1.90000e+03	0.0214089	700.0
1901	7.00047e+02	1.90100e+03	0.0214161	700.0
1902	7.00063e+02	1.90200e+03	0.0214262	700.0
1903	7.00071e+02	1.90300e+03	0.0214386	700.0
1904	7.00096e+02	1.90400e+03	0.021449	700.0
1905	7.00114e+02	1.90500e+03	0.0214578	700.0
1906	7.00122e+02	1.90600e+03	0.0214639	700.0
1907	7.00136e+02	1.90700e+03	0.0214678	700.0
1908	7.00155e+02	1.90800e+03	0.0214609	700.0
1909	7.00173e+02	1.90900e+03	0.0214476	700.0
1910	7.00174e+02	1.91000e+03	0.0214285	700.0
1911	7.00187e+02	1.91100e+03	0.021407	700.0
1912	7.00209e+02	1.91200e+03	0.0213677	700.0
1913	7.00219e+02	1.91300e+03	0.0213396	700.0
1914	7.00234e+02	1.91400e+03	0.0213149	700.0
1915	7.00243e+02	1.91500e+03	0.0212915	700.0
1916	7.00256e+02	1.91600e+03	0.0212767	700.0
1917	7.00269e+02	1.91700e+03	0.0212632	700.0
1918	7.00283e+02	1.91800e+03	0.0212542	700.0
1919	7.00294e+02	1.91900e+03	0.0212497	700.0
1920	7.00302e+02	1.92000e+03	0.0212671	700.0
1921	7.00316e+02	1.92100e+03	0.0212811	700.0
1922	7.00339e+02	1.92200e+03	0.0212962	700.0
1923	7.00344e+02	1.92300e+03	0.0213123	700.0
1924	7.00349e+02	1.92400e+03	0.0213403	700.0
1925	7.00360e+02	1.92500e+03	0.0213546	700.0
1926	7.00378e+02	1.92600e+03	0.021363	700.0
1927	7.00384e+02	1.92700e+03	0.0213699	700.0
1928	7.00382e+02	1.92800e+03	0.0213663	700.0
1929	7.00404e+02	1.92900e+03	0.0213718	700.0
1930	7.00411e+02	1.93000e+03	0.0213831	700.0
1931	7.00421e+02	1.93100e+03	0.0213972	700.0
1932	7.00425e+02	1.93200e+03	0.0214167	700.0
1933	7.00442e+02	1.93300e+03	0.0214336	700.0
1934	7.00446e+02	1.93400e+03	0.0214495	700.0
1935	7.00453e+02	1.93500e+03	0.0214648	700.0
1936	7.00468e+02	1.93600e+03	0.0214797	700.0
1937	7.00470e+02	1.93700e+03	0.0214909	700.0
1938	7.00479e+02	1.93800e+03	0.0214988	700.0
1939	7.00488e+02	1.93900e+03	0.0215047	700.0
1940	7.00494e+02	1.94000e+03	0.0214976	700.0
1941	7.00501e+02	1.94100e+03	0.0214919	700.0
1942	7.00505e+02	1.94200e+03	0.021484	700.0
1943	7.00515e+02	1.94300e+03	0.0214741	700.0
1944	7.00513e+02	1.94400e+03	0.0214525	700.0
1945	7.00524e+02	1.94500e+03	0.0214347	700.0
1946	7.00533e+02	1.94600e+03	0.0214186	700.0
1947	7.00538e+02	1.94700e+03	0.0214046	700.0
1948	7.00552e+02	1.94800e+03	0.021394	700.0
1949	7.00557e+02	1.94900e+03	0.0213872	700.0
1950	7.00559e+02	1.95000e+03	0.0213857	700.0
1951	7.00555e+02	1.95100e+03	0.0213879	700.0
1952	7.00567e+02	1.95200e+03	0.0214041	700.0
1953	7.00563e+02	1.95300e+03	0.0214138	700.0
1954	7.00575e+02	1.95400e+03	0.0214225	700.0
1955	7.00589e+02	1.95500e+03	0.0214311	700.0
1956	7.00589e+02	1.95600e+03	0.0214405	700.0
1957	7.00591e+02	1.95700e+03	0.0214441	700.0
1958	7.00594e+02	1.95800e+03	0.0214418	700.0
1959	7.00611e+02	1.95900e+03	0.0214365	700.0
1960	7.00612e+02	1.96000e+03	0.0214232	700.0
1961	7.00614e+02	1.96100e+03	0.0214181	700.0
1962	7.00628e+02	1.96200e+03	0.0214191	700.0
1963	7.00632e+02	1.96300e+03	0.0214237	700.0
1964	7.00626e+02	1.96400e+03	0.0214353	700.0
1965	7.00629e+02	1.96500e+03	0.0214452	700.0
1966	7.00633e+02	1.96600e+03	0.021454	700.0
1967	7.00634e+02	1.96700e+03	0.0214619	700.0
1968	7.00636e+02	1.96800e+03	0.0214728	700.0
1969	7.00640e+02	1.96900e+03	0.0214768	700.0
1970	7.00643e+02	1.97000e+03	0.0214785	700.0
1971	7.00648e+02	1.97100e+03	0.021481	700.0
1972	7.00644e+02	1.97200e+03	0.0214776	700.0
1973	7.00647e+02	1.97300e+03	0.021479	700.0
1974	7.00658e+02	1.97400e+03	0.0214802	700.0
1975	7.00665e+02	1.97500e+03	0.0214804	700.0
1976	7.00673e+02	1.97600e+03	0.0214836	700.0
1977	7.00663e+02	1.97700e+03	0.0214826	700.0
1978	7.00667e+02	1.97800e+03	0.0214824	700.0
1979	7.00676e+02	1.97900e+03	0.0214849	700.0
1980	7.00676e+02	1.98000e+03	0.0214901	700.0
1981	7.00680e+02	1.98100e+03	0.0214997	700.0
1982	7.00678e+02	1.98200e+03	0.0215126	700.0
1983	7.00686e+02	1.98300e+03	0.0215289	700.0
1984	7.00691e+02	1.98400e+03	0.0215628	700.0
1985	7.00687e+02	1.98500e+03	0.0215869	700.0
1986	7.00684e+02	1.98600e+03	0.021607	700.0
1987	7.00689e+02	1.98700e+03	0.0216251	700.0
1988	7.00696e+02	1.98800e+03	0.0216355	700.0
1989	7.00698e+02	1.98900e+03	0.021641	700.0
1990	7.00692e+02	1.99000e+03	0.0216405	700.0
1991	7.00705e+02	1.99100e+03	0.0216354	700.0
1992	7.00706e+02	1.99200e+03	0.021602	700.0
1993	7.00698e+02	1.99300e+03	0.0215744	700.0
1994	7.00704e+02	1.99400e+03	0.0215471	700.0
1995	7.00714e+02	1.99500e+03	0.0215195	700.0
1996	7.00711e+02	1.99600e+03	0.0214825	700.0
1997	7.00711e+02	1.99700e+03	0.021457	700.0
1998	7.00711e+02	1.99800e+03	0.0214368	700.0
1999	7.00722e+02	1.99900e+03	0.0214193	700.0
2000	7.00716e+02	2.00000e+03	0.0214194	700.0
2001	7.00709e+02	2.00100e+03	0.0214144	700.0
2002	7.00718e+02	2.00200e+03	0.0214104	700.0
2003	7.00727e+02	2.00300e+03	0.0214076	700.0
2004	7.00713e+02	2.00400e+03	0.0214158	700.0
2005	7.00720e+02	2.00500e+03	0.0214249	700.0
2006	7.00724e+02	2.00600e+03	0.0214384	700.0
2007	7.00721e+02	2.00700e+03	0.0214551	700.0
2008	7.00727e+02	2.00800e+03	0.0214817	700.0
2009	7.00724e+02	2.00900e+03	0.0215026	700.0
2010	7.00732e+02	2.01000e+03	0.0215241	700.0
2011	7.00735e+02	2.01100e+03	0.0215473	700.0
2012	7.00740e+02	2.01200e+03	0.0215767	700.0
2013	7.00732e+02	2.01300e+03	0.021604	700.0
2014	7.00732e+02	2.01400e+03	0.0216275	700.0
2015	7.00734e+02	2.01500e+03	0.0216479	700.0
2016	7.00726e+02	2.01600e+03	0.0216507	700.0
2017	7.00730e+02	2.01700e+03	0.0216366	700.0
2018	7.00741e+02	2.01800e+03	0.0216065	700.0
2019	7.00730e+02	2.01900e+03	0.0215676	700.0
2020	7.00727e+02	2.02000e+03	0.0214843	700.0
2021	7.00736e+02	2.02100e+03	0.0214246	700.0
2022	7.00734e+02	2.02200e+03	0.0213722	700.0
2023	7.00739e+02	2.02300e+03	0.0213228	700.0
2024	7.00734e+02	2.02400e+03	0.0212829	700.0
2025	7.00735e+02	2.02500e+03	0.021252	700.0
2026	7.00728e+02	2.02600e+03	0.0212312	700.0
2027	7.00739e+02	2.02700e+03	0.0212179	700.0
2028	7.00729e+02	2.02800e+03	0.0212449	700.0
2029	7.00733e+02	2.02900e+03	0.021262	700.0
2030	7.00735e+02	2.03000e+03	0.0212792	700.0
2031	7.00739e+02	2.03100e+03	0.0212968	700.0
2032	7.00727e+02	2.03200e+03	0.0213261	700.0
2033	7.00734e+02	2.03300e+03	0.0213404	700.0
2034	7.00738e+02	2.03400e+03	0.0213456	700.0
2035	7.00735e+02	2.03500e+03	0.0213444	700.0
2036	7.00737e+02	2.03600e+03	0.0213148	700.0
2037	7.00735e+02	2.03700e+03	0.0212935	700.0
2038	7.00739e+02	2.03800e+03	0.0212753	700.0
2039	7.00742e+02	2.03900e+03	0.0212592	700.0
2040	7.00745e+02	2.04000e+03	0.0212358	700.0
2041	7.00739e+02	2.04100e+03	0.021222	700.0
2042	7.00735e+02	2.04200e+03	0.0212143	700.0
2043	7.00727e+02	2.04300e+03	0.0212108	700.0
2044	7.00735e+02	2.04400e+03	0.0212292	700.0
2045	7.00739e+02	2.04500e+03	0.0212438	700.0
2046	7.00736e+02	2.04600e+03	0.0212624	700.0
2047	7.00727e+02	2.04700e+03	0.0212849	700.0
2048	7.00730e+02	2.04800e+03	0.0213251	700.0
2049	7.00732e+02	2.04900e+03	0.0213578	700.0
2050	7.00727e+02	2.05000e+03	0.0213878	700.0
2051	7.00728e+02	2.05100e+03	0.0214165	700.0
2052	7.00732e+02	2.05200e+03	0.0214449	700.0
2053	7.00725e+02	2.05300e+03	0.0214666	700.0
2054	7.00727e+02	2.05400e+03	0.0214834	700.0
2055	7.00718e+02	2.05500e+03	0.021497	700.0
2056	7.00719e+02	2.05600e+03	0.0214906	700.0
2057	7.00733e+02	2.05700e+03	0.0214882	700.0
2058	7.00722e+02	2.05800e+03	0.0214826	700.0
2059	7.00718e+02	2.05900e+03	0.0214728	700.0
2060	7.00718e+02	2.06000e+03	0.0214419	700.0
2061	7.00715e+02	2.06100e+03	0.0214145	700.0
2062	7.00725e+02	2.06200e+03	0.0213872	700.0
2063	7.00724e+02	2.06300e+03	0.0213596	700.0
2064	7.00720e+02	2.06400e+03	0.0213228	700.0
2065	7.00727e+02	2.06500e+03	0.0212939	700.0
2066	7.00720e+02	2.06600e+03	0.0212651	700.0
2067	7.00707e+02	2.06700e+03	0.0212358	700.0
2068	7.00708e+02	2.06800e+03	0.0212206	700.0
2069	7.00719e+02	2.06900e+03	0.0212081	700.0
2070	7.00715e+02	2.07000e+03	0.0212035	700.0
2071	7.00713e+02	2.07100e+03	0.021204	700.0
2072	7.00708e+02	2.07200e+03	0.0212228	700.0
2073	7.00711e+02	2.07300e+03	0.021237	700.0
2074	7.00721e+02	2.07400e+03	0.0212485	700.0
2075	7.00720e+02	2.07500e+03	0.0212582	700.0
2076	7.00721e+02	2.07600e+03	0.0212625	700.0
2077	7.00720e+02	2.07700e+03	0.0212535	700.0
2078	7.00720e+02	2.07800e+03	0.0212389	700.0
2079	7.00715e+02	2.07900e+03	0.021223	700.0
2080	7.00719e+02	2.08000e+03	0.0211887	700.0
2081	7.00711e+02	2.08100e+03	0.021172	700.0
2082	7.00712e+02	2.08200e+03	0.0211607	700.0
2083	7.00714e+02	2.08300e+03	0.0211516	700.0
2084	7.00704e+02	2.08400e+03	0.0211642	700.0
2085	7.00713e+02	2.08500e+03	0.0211707	700.0
2086	7.00708e+02	2.08600e+03	0.0211788	700.0
2087	7.00703e+02	2.08700e+03	0.0211891	700.0
2088	7.00708e+02	2.08800e+03	0.0212129	700.0
2089	7.00709e+02	2.08900e+03	0.0212377	700.0
2090	7.00698e+02	2.09000e+03	0.0212652	700.0
2091	7.00704e+02	2.09100e+03	0.0212933	700.0
2092	7.00705e+02	2.09200e+03	0.0213265	700.0
2093	7.00708e+02	2.09300e+03	0.0213505	700.0
2094	7.00711e+02	2.09400e+03	0.0213692	700.0
2095	7.00698e+02	2.09500e+03	0.0213848	700.0
2096	7.00694e+02	2.09600e+03	0.0213825	700.0
2097	7.00701e+02	2.09700e+03	0.0213829	700.0
2098	7.00709e+02	2.09800e+03	0.0213812	700.0
2099	7.00702e+02	2.09900e+03	0.0213777	700.0
2100	7.00703e+02	2.10000e+03	0.0213632	700.0
2101	7.00694e+02	2.10100e+03	0.0213578	700.0
2102	7.00701e+02	2.10200e+03	0.021358	700.0
2103	7.00692e+02	2.10300e+03	0.0213608	700.0
2104	7.00687e+02	2.10400e+03	0.0213715	700.0
2105	7.00691e+02	2.10500e+03	0.0213824	700.0
2106	7.00698e+02	2.10600e+03	0.0213942	700.0
2107	7.00689e+02	2.10700e+03	0.021405	700.0
2108	7.00695e+02	2.10800e+03	0.0214159	700.0
2109	7.00691e+02	2.10900e+03	0.021419	700.0
2110	7.00690e+02	2.11000e+03	0.0214168	700.0
2111	7.00685e+02	2.11100e+03	0.0214113	700.0
2112	7.00686e+02	2.11200e+03	0.0213892	700.0
2113	7.00688e+02	2.11300e+03	0.0213761	700.0
2114	7.00685e+02	2.11400e+03	0.021365	700.0
2115	7.00685e+02	2.11500e+03	0.021353	700.0
2116	7.00684e+02	2.11600e+03	0.0213378	700.0
2117	7.00678e+02	2.11700e+03	0.0213244	700.0
2118	7.00679e+02	2.11800e+03	0.0213119	700.0
2119	7.00679e+02	2.11900e+03	0.0213001	700.0
2120	7.00680e+02	2.12000e+03	0.0212932	700.0
2121	7.00681e+02	2.12100e+03	0.0212886	700.0
2122	7.00683e+02	2.12200e+03	0.021289	700.0
2123	7.00680e+02	2.12300e+03	0.0212944	700.0
2124	7.00680e+02	2.12400e+03	0.0213174	700.0
2125	7.00674e+02	2.12500e+03	0.021337	700.0
2126	7.00678e+02	2.12600e+03	0.0213569	700.0
2127	7.00686e+02	2.12700e+03	0.0213771	700.0
2128	7.00668e+02	2.12800e+03	0.0214062	700.0
2129	7.00664e+02	2.12900e+03	0.0214272	700.0
2130	7.00665e+02	2.13000e+03	0.0214483	700.0
2131	7.00670e+02	2.13100e+03	0.0214704	700.0
2132	7.00675e+02	2.13200e+03	0.0214813	700.0
2133	7.00660e+02	2.13300e+03	0.0214941	700.0
2134	7.00660e+02	2.13400e+03	0.0215049	700.0
2135	7.00663e+02	2.13500e+03	0.0215138	700.0
2136	7.00672e+02	2.13600e+03	0.0215149	700.0
2137	7.00657e+02	2.13700e+03	0.0215158	700.0
2138	7.00649e+02	2.13800e+03	0.0215146	700.0
2139	7.00661e+02	2.13900e+03	0.0215118	700.0
2140	7.00649e+02	2.14000e+03	0.0214978	700.0
2141	7.00661e+02	2.14100e+03	0.0214834	700.0
2142	7.00655e+02	2.14200e+03	0.0214649	700.0
2143	7.00652e+02	2.14300e+03	0.0214446	700.0
2144	7.00653e+02	2.14400e+03	0.0214166	700.0
2145	7.00639e+02	2.14500e+03	0.0213943	700.0
2146	7.00643e+02	2.14600e+03	0.0213784	700.0
2147	7.00649e+02	2.14700e+03	0.0213687	700.0
2148	7.00655e+02	2.14800e+03	0.0213794	700.0
2149	7.00641e+02	2.14900e+03	0.0213932	700.0
2150	7.00643e+02	2.15000e+03	0.0214076	700.0
2151	7.00638e+02	2.15100e+03	0.0214205	700.0
2152	7.00648e+02	2.15200e+03	0.0214487	700.0
2153	7.00637e+02	2.15300e+03	0.0214591	700.0
2154	7.00638e+02	2.15400e+03	0.0214637	700.0
2155	7.00640e+02	2.15500e+03	0.0214662	700.0
2156	7.00641e+02	2.15600e+03	0.0214464	700.0
2157	7.00637e+02	2.15700e+03	0.0214388	700.0
2158	7.00627e+02	2.15800e+03	0.0214335	700.0
2159	7.00637e+02	2.15900e+03	0.0214285	700.0
2160	7.00642e+02	2.16000e+03	0.0214267	700.0
2161	7.00634e+02	2.16100e+03	0.021423	700.0
2162	7.00626e+02	2.16200e+03	0.0214186	700.0
2163	7.00630e+02	2.16300e+03	0.0214137	700.0
2164	7.00632e+02	2.16400e+03	0.0214133	700.0
2165	7.00636e+02	2.16500e+03	0.0214155	700.0
2166	7.00635e+02	2.16600e+03	0.0214181	700.0
2167	7.00634e+02	2.16700e+03	0.0214205	700.0
2168	7.00629e+02	2.16800e+03	0.02142	700.0
2169	7.00629e+02	2.16900e+03	0.0214118	700.0
2170	7.00632e+02	2.17000e+03	0.0214015	700.0
2171	7.00624e+02	2.17100e+03	0.0213922	700.0
2172	7.00632e+02	2.17200e+03	0.0213816	700.0
2173	7.00623e+02	2.17300e+03	0.0213853	700.0
2174	7.00621e+02	2.17400e+03	0.0213967	700.0
2175	7.00619e+02	2.17500e+03	0.021411	700.0
2176	7.00615e+02	2.17600e+03	0.0214451	700.0
2177	7.00621e+02	2.17700e+03	0.0214644	700.0
2178	7.00617e+02	2.17800e+03	0.0214776	700.0
2179	7.00622e+02	2.17900e+03	0.0214878	700.0
2180	7.00619e+02	2.18000e+03	0.0214835	700.0
2181	7.00613e+02	2.18100e+03	0.0214801	700.0
2182	7.00611e+02	2.18200e+03	0.0214745	700.0
2183	7.00614e+02	2.18300e+03	0.0214672	700.0
2184	7.00617e+02	2.18400e+03	0.0214481	700.0
2185	7.00617e+02	2.18500e+03	0.0214365	700.0
2186	7.00619e+02	2.18600e+03	0.0214272	700.0
2187	7.00614e+02	2.18700e+03	0.0214186	700.0
2188	7.00617e+02	2.18800e+03	0.0214158	700.0
2189	7.00609e+02	2.18900e+03	0.0214127	700.0
2190	7.00600e+02	2.19000e+03	0.021411	700.0
2191	7.00612e+02	2.19100e+03	0.0214105	700.0
2192	7.00610e+02	2.19200e+03	0.021417	700.0
2193	7.00599e+02	2.19300e+03	0.021422	700.0
2194	7.00596e+02	2.19400e+03	0.0214275	700.0
2195	7.00604e+02	2.19500e+03	0.0214337	700.0
2196	7.00605e+02	2.19600e+03	0.0214447	700.0
2197	7.00601e+02	2.19700e+03	0.0214576	700.0
2198	7.00593e+02	2.19800e+03	0.0214726	700.0
2199	7.00601e+02	2.19900e+03	0.0214877	700.0
2200	7.00600e+02	2.20000e+03	0.0215021	700.0
2201	7.00600e+02	2.20100e+03	0.0215114	700.0
2202	7.00595e+02	2.20200e+03	0.0215163	700.0
2203	7.00592e+02	2.20300e+03	0.0215174	700.0
2204	7.00600e+02	2.20400e+03	0.0214973	700.0
2205	7.00603e+02	2.20500e+03	0.0214773	700.0
2206	7.00583e+02	2.20600e+03	0.021455	700.0
2207	7.00590e+02	2.20700e+03	0.0214309	700.0
2208	7.00591e+02	2.20800e+03	0.0213903	700.0
2209	7.00593e+02	2.20900e+03	0.021362	700.0
2210	7.00587e+02	2.21000e+03	0.0213385	700.0
2211	7.00586e+02	2.21100e+03	0.0213172	700.0
2212	7.00583e+02	2.21200e+03	0.0213108	700.0
2213	7.00580e+02	2.21300e+03	0.0213065	700.0
2214	7.00582e+02	2.21400e+03	0.0213088	700.0
2215	7.00577e+02	2.21500e+03	0.0213149	700.0
2216	7.00577e+02	2.21600e+03	0.0213376	700.0
2217	7.00574e+02	2.21700e+03	0.021352	700.0
2218	7.00576e+02	2.21800e+03	0.0213642	700.0
2219	7.00576e+02	2.21900e+03	0.0213755	700.0
2220	7.00574e+02	2.22000e+03	0.0213835	700.0
2221	7.00572e+02	2.22100e+03	0.0213887	700.0
2222	7.00569e+02	2.22200e+03	0.0213945	700.0
2223	7.00554e+02	2.22300e+03	0.0214016	700.0
2224	7.00562e+02	2.22400e+03	0.0214041	700.0
2225	7.00562e+02	2.22500e+03	0.0214118	700.0
2226	7.00559e+02	2.22600e+03	0.021419	700.0
2227	7.00551e+02	2.22700e+03	0.021425	700.0
2228	7.00550e+02	2.22800e+03	0.0214345	700.0
2229	7.00561e+02	2.22900e+03	0.0214389	700.0
2230	7.00554e+02	2.23000e+03	0.021441	700.0
2231	7.00547e+02	2.23100e+03	0.0214419	700.0
2232	7.00554e+02	2.23200e+03	0.0214354	700.0
2233	7.00554e+02	2.23300e+03	0.0214316	700.0
2234	7.00540e+02	2.23400e+03	0.0214248	700.0
2235	7.00543e+02	2.23500e+03	0.0214147	700.0
2236	7.00539e+02	2.23600e+03	0.0214	700.0
2237	7.00542e+02	2.23700e+03	0.0213869	700.0
2238	7.00525e+02	2.23800e+03	0.0213746	700.0
2239	7.00529e+02	2.23900e+03	0.021363	700.0
2240	7.00528e+02	2.24000e+03	0.0213513	700.0
2241	7.00528e+02	2.24100e+03	0.0213452	700.0
2242	7.00520e+02	2.24200e+03	0.0213432	700.0
2243	7.00521e+02	2.24300e+03	0.0213437	700.0
2244	7.00510e+02	2.24400e+03	0.0213597	700.0
2245	7.00510e+02	2.24500e+03	0.021373	700.0
2246	7.00504e+02	2.24600e+03	0.0213901	700.0
2247	7.00496e+02	2.24700e+03	0.0214111	700.0
2248	7.00496e+02	2.24800e+03	0.0214474	700.0
2249	7.00489e+02	2.24900e+03	0.0214805	700.0
2250	7.00488e+02	2.25000e+03	0.0215126	700.0
2251	7.00482e+02	2.25100e+03	0.0215434	700.0
2252	7.00476e+02	2.25200e+03	0.0215723	700.0
2253	7.00477e+02	2.25300e+03	0.0215902	700.0
2254	7.00472e+02	2.25400e+03	0.0215989	700.0
2255	7.00463e+02	2.25500e+03	0.0216016	700.0
2256	7.00467e+02	2.25600e+03	0.0215723	700.0
2257	7.00467e+02	2.25700e+03	0.0215502	700.0
2258	7.00469e+02	2.25800e+03	0.0215264	700.0
2259	7.00459e+02	2.25900e+03	0.0215006	700.0
2260	7.00463e+02	2.26000e+03	0.0214548	700.0
2261	7.00455e+02	2.26100e+03	0.0214137	700.0
2262	7.00453e+02	2.26200e+03	0.0213684	700.0
2263	7.00442e+02	2.26300e+03	0.0213201	700.0
2264	7.00439e+02	2.26400e+03	0.0212644	700.0
2265	7.00436e+02	2.26500e+03	0.0212148	700.0
2266	7.00442e+02	2.26600e+03	0.0211723	700.0
2267	7.00432e+02	2.26700e+03	0.0211358	700.0
2268	7.00437e+02	2.26800e+03	0.0211336	700.0
2269	7.00438e+02	2.26900e+03	0.0211479	700.0
2270	7.00429e+02	2.27000e+03	0.0211806	700.0
2271	7.00429e+02	2.27100e+03	0.0212255	700.0
2272	7.00429e+02	2.27200e+03	0.0213467	700.0
2273	7.00423e+02	2.27300e+03	0.0214403	700.0
2274	7.00419e+02	2.27400e+03	0.0215307	700.0
2275	7.00417e+02	2.27500e+03	0.0216214	700.0
2276	7.00409e+02	2.27600e+03	0.0217128	700.0
2277	7.00422e+02	2.27700e+03	0.0217821	700.0
2278	7.00410e+02	2.27800e+03	0.0218365	700.0
2279	7.00401e+02	2.27900e+03	0.0218817	700.0
2280	7.00401e+02	2.28000e+03	0.0218738	700.0
2281	7.00401e+02	2.28100e+03	0.0218822	700.0
2282	7.00399e+02	2.28200e+03	0.0218877	700.0
2283	7.00392e+02	2.28300e+03	0.0218881	700.0
2284	7.00393e+02	2.28400e+03	0.0218536	700.0
2285	7.00389e+02	2.28500e+03	0.0218245	700.0
2286	7.00386e+02	2.28600e+03	0.021793	700.0
2287	7.00391e+02	2.28700e+03	0.021759	700.0
2288	7.00388e+02	2.28800e+03	0.0217076	700.0
2289	7.00386e+02	2.28900e+03	0.0216722	700.0
2290	7.00383e+02	2.29000e+03	0.0216489	700.0
2291	7.00377e+02	2.29100e+03	0.0216332	700.0
2292	7.00379e+02	2.29200e+03	0.0216355	700.0
2293	7.00378e+02	2.29300e+03	0.0216287	700.0
2294	7.00378e+02	2.29400e+03	0.0216161	700.0
2295	7.00375e+02	2.29500e+03	0.0215995	700.0
2296	7.00362e+02	2.29600e+03	0.0215848	700.0
2297	7.00365e+02	2.29700e+03	0.0215642	700.0
2298	7.00369e+02	2.29800e+03	0.0215423	700.0
2299	7.00364e+02	2.29900e+03	0.0215207	700.0
2300	7.00372e+02	2.30000e+03	0.0214894	700.0
2301	7.00365e+02	2.30100e+03	0.0214732	700.0
2302	7.00370e+02	2.30200e+03	0.0214656	700.0
2303	7.00359e+02	2.30300e+03	0.0214615	700.0
2304	7.00364e+02	2.30400e+03	0.0214767	700.0
2305	7.00359e+02	2.30500e+03	0.0214836	700.0
2306	7.00359e+02	2.30600e+03	0.0214902	700.0
2307	7.00355e+02	2.30700e+03	0.0214987	700.0
2308	7.00345e+02	2.30800e+03	0.021517	700.0
2309	7.00352e+02	2.30900e+03	0.0215326	700.0
2310	7.00338e+02	2.31000e+03	0.0215442	700.0
2311	7.00341e+02	2.31100e+03	0.0215522	700.0
2312	7.00337e+02	2.31200e+03	0.0215567	700.0
2313	7.00347e+02	2.31300e+03	0.021557	700.0
2314	7.00349e+02	2.31400e+03	0.021556	700.0
2315	7.00344e+02	2.31500e+03	0.021556	700.0
2316	7.00345e+02	2.31600e+03	0.0215472	700.0
2317	7.00340e+02	2.31700e+03	0.0215451	700.0
2318	7.00331e+02	2.31800e+03	0.0215417	700.0
2319	7.00331e+02	2.31900e+03	0.0215347	700.0
2320	7.00333e+02	2.32000e+03	0.0215239	700.0
2321	7.00336e+02	2.32100e+03	0.0215074	700.0
2322	7.00335e+02	2.32200e+03	0.0214883	700.0
2323	7.00325e+02	2.32300e+03	0.0214682	700.0
2324	7.00319e+02	2.32400e+03	0.0214378	700.0
2325	7.00331e+02	2.32500e+03	0.0214235	700.0
2326	7.00333e+02	2.32600e+03	0.0214165	700.0
2327	7.00320e+02	2.32700e+03	0.0214123	700.0
2328	7.00319e+02	2.32800e+03	0.0214296	700.0
2329	7.00313e+02	2.32900e+03	0.0214405	700.0
2330	7.00317e+02	2.33000e+03	0.0214557	700.0
2331	7.00318e+02	2.33100e+03	0.0214749	700.0
2332	7.00312e+02	2.33200e+03	0.0215095	700.0
2333	7.00312e+02	2.33300e+03	0.0215416	700.0
2334	7.00314e+02	2.33400e+03	0.0215722	700.0
2335	7.00305e+02	2.33500e+03	0.0216019	700.0
2336	7.00299e+02	2.33600e+03	0.0216356	700.0
2337	7.00299e+02	2.33700e+03	0.0216606	700.0
2338	7.00307e+02	2.33800e+03	0.0216809	700.0
2339	7.00306e+02	2.33900e+03	0.021699	700.0
2340	7.00307e+02	2.34000e+03	0.0217075	700.0
2341	7.00303e+02	2.34100e+03	0.0217243	700.0
2342	7.00297e+02	2.34200e+03	0.0217412	700.0
2343	7.00299e+02	2.34300e+03	0.0217572	700.0
2344	7.00294e+02	2.34400e+03	0.0217741	700.0
2345	7.00297e+02	2.34500e+03	0.0217862	700.0
2346	7.00287e+02	2.34600e+03	0.0217949	700.0
2347	7.00288e+02	2.34700e+03	0.0218015	700.0
2348	7.00284e+02	2.34800e+03	0.0217963	700.0
2349	7.00283e+02	2.34900e+03	0.0217935	700.0
2350	7.00288e+02	2.35000e+03	0.0217892	700.0
2351	7.00287e+02	2.35100e+03	0.0217832	700.0
2352	7.00279e+02	2.35200e+03	0.0217623	700.0
2353	7.00281e+02	2.35300e+03	0.0217418	700.0
2354	7.00284e+02	2.35400e+03	0.0217203	700.0
2355	7.00282e+02	2.35500e+03	0.021698	700.0
2356	7.00278e+02	2.35600e+03	0.0216701	700.0
2357	7.00271e+02	2.35700e+03	0.0216535	700.0
2358	7.00275e+02	2.35800e+03	0.0216442	700.0
2359	7.00269e+02	2.35900e+03	0.0216396	700.0
2360	7.00266e+02	2.36000e+03	0.0216552	700.0
2361	7.00261e+02	2.36100e+03	0.0216642	700.0
2362	7.00270e+02	2.36200e+03	0.021672	700.0
2363	7.00258e+02	2.36300e+03	0.0216795	700.0
2364	7.00255e+02	2.36400e+03	0.0216927	700.0
2365	7.00254e+02	2.36500e+03	0.0216987	700.0
2366	7.00255e+02	2.36600e+03	0.0217015	700.0
2367	7.00260e+02	2.36700e+03	0.0217024	700.0
2368	7.00257e+02	2.36800e+03	0.0216855	700.0
2369	7.00256e+02	2.36900e+03	0.0216673	700.0
2370	7.00257e+02	2.37000e+03	0.0216459	700.0
2371	7.00256e+02	2.37100e+03	0.0216234	700.0
2372	7.00246e+02	2.37200e+03	0.0215913	700.0
2373	7.00247e+02	2.37300e+03	0.021569	700.0
2374	7.00253e+02	2.37400e+03	0.0215521	700.0
2375	7.00244e+02	2.37500e+03	0.0215395	700.0
2376	7.00247e+02	2.37600e+03	0.0215424	700.0
2377	7.00237e+02	2.37700e+03	0.0215402	700.0
2378	7.00240e+02	2.37800e+03	0.0215367	700.0
2379	7.00232e+02	2.37900e+03	0.0215327	700.0
2380	7.00231e+02	2.38000e+03	0.0215331	700.0
2381	7.00239e+02	2.38100e+03	0.0215276	700.0
2382	7.00238e+02	2.38200e+03	0.0215204	700.0
2383	7.00223e+02	2.38300e+03	0.0215129	700.0
2384	7.00223e+02	2.38400e+03	0.0215004	700.0
2385	7.00231e+02	2.38500e+03	0.0214941	700.0
2386	7.00227e+02	2.38600e+03	0.0214902	700.0
2387	7.00213e+02	2.38700e+03	0.0214876	700.0
2388	7.00219e+02	2.38800e+03	0.0214958	700.0
2389	7.00219e+02	2.38900e+03	0.0215052	700.0
2390	7.00229e+02	2.39000e+03	0.0215182	700.0
2391	7.00220e+02	2.39100e+03	0.0215326	700.0
2392	7.00217e+02	2.39200e+03	0.0215559	700.0
2393	7.00214e+02	2.39300e+03	0.0215746	700.0
2394	7.00215e+02	2.39400e+03	0.0215921	700.0
2395	7.00221e+02	2.39500e+03	0.0216091	700.0
2396	7.00216e+02	2.39600e+03	0.0216241	700.0
2397	7.00223e+02	2.39700e+03	0.0216371	700.0
2398	7.00210e+02	2.39800e+03	0.0216479	700.0
2399	7.00213e+02	2.39900e+03	0.021657	700.0
2400	7.00223e+02	2.40000e+03	0.0216566	700.0
2401	7.00216e+02	2.40100e+03	0.0216573	700.0
2402	7.00213e+02	2.40200e+03	0.0216566	700.0
2403	7.00203e+02	2.40300e+03	0.0216549	700.0
2404	7.00205e+02	2.40400e+03	0.0216462	700.0
2405	7.00203e+02	2.40500e+03	0.0216418	700.0
2406	7.00197e+02	2.40600e+03	0.0216408	700.0
2407	7.00203e+02	2.40700e+03	0.021643	700.0
2408	7.00201e+02	2.40800e+03	0.0216526	700.0
2409	7.00195e+02	2.40900e+03	0.0216613	700.0
2410	7.00191e+02	2.41000e+03	0.0216699	700.0
2411	7.00200e+02	2.41100e+03	0.0216784	700.0
2412	7.00200e+02	2.41200e+03	0.0216913	700.0
2413	7.00198e+02	2.41300e+03	0.0216973	700.0
2414	7.00199e+02	2.41400e+03	0.0217018	700.0
2415	7.00201e+02	2.41500e+03	0.021708	700.0
2416	7.00195e+02	2.41600e+03	0.0217189	700.0
2417	7.00194e+02	2.41700e+03	0.0217412	700.0
2418	7.00203e+02	2.41800e+03	0.0217702	700.0
2419	7.00199e+02	2.41900e+03	0.0218018	700.0
2420	7.00194e+02	2.42000e+03	0.0218504	700.0
2421	7.00193e+02	2.42100e+03	0.0218807	700.0
2422	7.00196e+02	2.42200e+03	0.0218982	700.0
2423	7.00187e+02	2.42300e+03	0.0219067	700.0
2424	7.00191e+02	2.42400e+03	0.0218813	700.0
2425	7.00178e+02	2.42500e+03	0.0218547	700.0
2426	7.00189e+02	2.42600e+03	0.0218189	700.0
2427	7.00183e+02	2.42700e+03	0.0217765	700.0
2428	7.00172e+02	2.42800e+03	0.0216947	700.0
2429	7.00178e+02	2.42900e+03	0.0216344	700.0
2430	7.00182e+02	2.43000e+03	0.0215819	700.0
2431	7.00180e+02	2.43100e+03	0.0215329	700.0
2432	7.00173e+02	2.43200e+03	0.0214965	700.0
2433	7.00181e+02	2.43300e+03	0.0214655	700.0
2434	7.00182e+02	2.43400e+03	0.0214409	700.0
2435	7.00186e+02	2.43500e+03	0.0214205	700.0
2436	7.00180e+02	2.43600e+03	0.0214238	700.0
2437	7.00177e+02	2.43700e+03	0.0214125	700.0
2438	7.00175e+02	2.43800e+03	0.0213991	700.0
2439	7.00175e+02	2.43900e+03	0.0213887	700.0
2440	7.00168e+02	2.44000e+03	0.0213911	700.0
2441	7.00169e+02	2.44100e+03	0.0214031	700.0
2442	7.00172e+02	2.44200e+03	0.0214239	700.0
2443	7.00167e+02	2.44300e+03	0.0214487	700.0
2444	7.00167e+02	2.44400e+03	0.0214882	700.0
2445	7.00167e+02	2.44500e+03	0.0215061	700.0
2446	7.00165e+02	2.44600e+03	0.0215139	700.0
2447	7.00152e+02	2.44700e+03	0.0215174	700.0
2448	7.00148e+02	2.44800e+03	0.0215029	700.0
2449	7.00168e+02	2.44900e+03	0.0214989	700.0
2450	7.00157e+02	2.45000e+03	0.021499	700.0
2451	7.00154e+02	2.45100e+03	0.0215025	700.0
2452	7.00164e+02	2.45200e+03	0.0215134	700.0
2453	7.00153e+02	2.45300e+03	0.0215238	700.0
2454	7.00156e+02	2.45400e+03	0.0215331	700.0
2455	7.00153e+02	2.45500e+03	0.0215415	700.0
2456	7.00150e+02	2.45600e+03	0.0215526	700.0
2457	7.00150e+02	2.45700e+03	0.0215565	700.0
2458	7.00145e+02	2.45800e+03	0.0215602	700.0
2459	7.00151e+02	2.45900e+03	0.0215647	700.0
2460	7.00140e+02	2.46000e+03	0.0215549	700.0
2461	7.00144e+02	2.46100e+03	0.0215471	700.0
2462	7.00144e+02	2.46200e+03	0.0215343	700.0
2463	7.00154e+02	2.46300e+03	0.0215179	700.0
2464	7.00138e+02	2.46400e+03	0.0214902	700.0
2465	7.00140e+02	2.46500e+03	0.0214605	700.0
2466	7.00142e+02	2.46600e+03	0.0214293	700.0
2467	7.00140e+02	2.46700e+03	0.021398	700.0
2468	7.00138e+02	2.46800e+03	0.0213588	700.0
2469	7.00142e+02	2.46900e+03	0.0213281	700.0
2470	7.00150e+02	2.47000e+03	0.0213003	700.0
2471	7.00142e+02	2.47100e+03	0.0212747	700.0
2472	7.00134e+02	2.47200e+03	0.0212612	700.0
2473	7.00129e+02	2.47300e+03	0.0212417	700.0
2474	7.00131e+02	2.47400e+03	0.0212231	700.0
2475	7.00128e+02	2.47500e+03	0.0212062	700.0
2476	7.00132e+02	2.47600e+03	0.0211963	700.0
2477	7.00140e+02	2.47700e+03	0.0211911	700.0
2478	7.00131e+02	2.47800e+03	0.0211929	700.0
2479	7.00132e+02	2.47900e+03	0.0211999	700.0
2480	7.00132e+02	2.48000e+03	0.0212352	700.0
2481	7.00135e+02	2.48100e+03	0.0212747	700.0
2482	7.00129e+02	2.48200e+03	0.0213243	700.0
2483	7.00133e+02	2.48300e+03	0.0213807	700.0
2484	7.00129e+02	2.48400e+03	0.0214707	700.0
2485	7.00122e+02	2.48500e+03	0.0215409	700.0
2486	7.00128e+02	2.48600e+03	0.0216025	700.0
2487	7.00129e+02	2.48700e+03	0.0216598	700.0
2488	7.00134e+02	2.48800e+03	0.0217044	700.0
2489	7.00123e+02	2.48900e+03	0.0217417	700.0
2490	7.00124e+02	2.49000e+03	0.0217683	700.0
2491	7.00125e+02	2.49100e+03	0.0217869	700.0
2492	7.00126e+02	2.49200e+03	0.0217652	700.0
2493	7.00121e+02	2.49300e+03	0.0217506	700.0
2494	7.00121e+02	2.49400e+03	0.0217296	700.0
2495	7.00123e+02	2.49500e+03	0.0217029	700.0
2496	7.00117e+02	2.49600e+03	0.0216459	700.0
2497	7.00124e+02	2.49700e+03	0.0216004	700.0
2498	7.00128e+02	2.49800e+03	0.0215585	700.0
2499	7.00128e+02	2.49900e+03	0.021518	700.0
2500	7.00117e+02	2.50000e+03	0.0214856	700.0
2501	7.00116e+02	2.50100e+03	0.0214687	700.0
2502	7.00125e+02	2.50200e+03	0.0214627	700.0
2503	7.00122e+02	2.50300e+03	0.0214619	700.0
2504	7.00115e+02	2.50400e+03	0.0214956	700.0
2505	7.00116e+02	2.50500e+03	0.0215127	700.0
2506	7.00120e+02	2.50600e+03	0.0215259	700.0
2507	7.00123e+02	2.50700e+03	0.0215377	700.0
2508	7.00113e+02	2.50800e+03	0.021545	700.0
2509	7.00114e+02	2.50900e+03	0.0215474	700.0
2510	7.00112e+02	2.51000e+03	0.0215463	700.0
2511	7.00110e+02	2.51100e+03	0.0215433	700.0
2512	7.00108e+02	2.51200e+03	0.0215262	700.0
2513	7.00114e+02	2.51300e+03	0.0215169	700.0
2514	7.00108e+02	2.51400e+03	0.0215097	700.0
2515	7.00117e+02	2.51500e+03	0.021503	700.0
2516	7.00116e+02	2.51600e+03	0.0214996	700.0
2517	7.00110e+02	2.51700e+03	0.0214917	700.0
2518	7.00108e+02	2.51800e+03	0.0214788	700.0
2519	7.00106e+02	2.51900e+03	0.0214636	700.0
2520	7.00103e+02	2.52000e+03	0.0214466	700.0
2521	7.00102e+02	2.52100e+03	0.0214321	700.0
2522	7.00104e+02	2.52200e+03	0.0214189	700.0
2523	7.00100e+02	2.52300e+03	0.0214064	700.0
2524	7.00110e+02	2.52400e+03	0.0214004	700.0
2525	7.00100e+02	2.52500e+03	0.0214012	700.0
2526	7.00097e+02	2.52600e+03	0.0214083	700.0
2527	7.00109e+02	2.52700e+03	0.0214192	700.0
2528	7.00101e+02	2.52800e+03	0.021445	700.0
2529	7.00107e+02	2.52900e+03	0.0214599	700.0
2530	7.00114e+02	2.53000e+03	0.0214674	700.0
2531	7.00106e+02	2.53100e+03	0.0214686	700.0
2532	7.00107e+02	2.53200e+03	0.0214421	700.0
2533	7.00100e+02	2.53300e+03	0.0214087	700.0
2534	7.00102e+02	2.53400e+03	0.0213684	700.0
2535	7.00090e+02	2.53500e+03	0.0213247	700.0
2536	7.00105e+02	2.53600e+03	0.0212661	700.0
2537	7.00109e+02	2.53700e+03	0.0212551	700.0
2538	7.00106e+02	2.53800e+03	0.0212775	700.0
2539	7.00113e+02	2.53900e+03	0.0213176	700.0
2540	7.00103e+02	2.54000e+03	0.0214378	700.0
2541	7.00087e+02	2.54100e+03	0.0215205	700.0
2542	7.00097e+02	2.54200e+03	0.0215813	700.0
2543	7.00102e+02	2.54300e+03	0.0216288	700.0
2544	7.00099e+02	2.54400e+03	0.0216573	700.0
2545	7.00096e+02	2.54500e+03	0.0216564	700.0
2546	7.00099e+02	2.54600e+03	0.0216359	700.0
2547	7.00100e+02	2.54700e+03	0.0216053	700.0
2548	7.00095e+02	2.54800e+03	0.0214823	700.0
2549	7.00098e+02	2.54900e+03	0.021404	700.0
2550	7.00101e+02	2.55000e+03	0.0213369	700.0
2551	7.00102e+02	2.55100e+03	0.0212732	700.0
2552	7.00101e+02	2.55200e+03	0.021227	700.0
2553	7.00094e+02	2.55300e+03	0.0211929	700.0
2554	7.00104e+02	2.55400e+03	0.0211714	700.0
2555	7.00108e+02	2.55500e+03	0.0211583	700.0
2556	7.00094e+02	2.55600e+03	0.0212067	700.0
2557	7.00088e+02	2.55700e+03	0.0212454	700.0
2558	7.00103e+02	2.55800e+03	0.0212925	700.0
2559	7.00097e+02	2.55900e+03	0.021347	700.0
2560	7.00095e+02	2.56000e+03	0.0214394	700.0
2561	7.00094e+02	2.56100e+03	0.0215102	700.0
2562	7.00094e+02	2.56200e+03	0.0215718	700.0
2563	7.00093e+02	2.56300e+03	0.0216288	700.0
2564	7.00098e+02	2.56400e+03	0.0216648	700.0
2565	7.00092e+02	2.56500e+03	0.0216938	700.0
2566	7.00092e+02	2.56600e+03	0.0217129	700.0
2567	7.00094e+02	2.56700e+03	0.0217253	700.0
2568	7.00091e+02	2.56800e+03	0.0216968	700.0
2569	7.00087e+02	2.56900e+03	0.0216827	700.0
2570	7.00089e+02	2.57000e+03	0.0216683	700.0
2571	7.00092e+02	2.57100e+03	0.021652	700.0
2572	7.00101e+02	2.57200e+03	0.0216187	700.0
2573	7.00088e+02	2.57300e+03	0.0215881	700.0
2574	7.00085e+02	2.57400e+03	0.0215571	700.0
2575	7.00084e+02	2.57500e+03	0.0215259	700.0
2576	7.00087e+02	2.57600e+03	0.0214897	700.0
2577	7.00086e+02	2.57700e+03	0.0214592	700.0
2578	7.00084e+02	2.57800e+03	0.0214318	700.0
2579	7.00085e+02	2.57900e+03	0.0214062	700.0
2580	7.00084e+02	2.58000e+03	0.0213906	700.0
2581	7.00082e+02	2.58100e+03	0.021374	700.0
2582	7.00084e+02	2.58200e+03	0.0213594	700.0
2583	7.00072e+02	2.58300e+03	0.0213465	700.0
2584	7.00081e+02	2.58400e+03	0.0213461	700.0
2585	7.00089e+02	2.58500e+03	0.0213484	700.0
2586	7.00095e+02	2.58600e+03	0.0213562	700.0
2587	7.00090e+02	2.58700e+03	0.0213666	700.0
2588	7.00085e+02	2.58800e+03	0.0213908	700.0
2589	7.00084e+02	2.58900e+03	0.0214088	700.0
2590	7.00086e+02	2.59000e+03	0.0214249	700.0
2591	7.00094e+02	2.59100e+03	0.0214402	700.0
2592	7.00089e+02	2.59200e+03	0.0214579	700.0
2593	7.00094e+02	2.59300e+03	0.0214751	700.0
2594	7.00087e+02	2.59400e+03	0.0214913	700.0
2595	7.00085e+02	2.59500e+03	0.021506	700.0
2596	7.00083e+02	2.59600e+03	0.0215116	700.0
2597	7.00089e+02	2.59700e+03	0.0215121	700.0
2598	7.00089e+02	2.59800e+03	0.0215071	700.0
2599	7.00080e+02	2.59900e+03	0.0214994	700.0
2600	7.00085e+02	2.60000e+03	0.0214759	700.0
2601	7.00089e+02	2.60100e+03	0.0214594	700.0
2602	7.00071e+02	2.60200e+03	0.0214443	700.0
2603	7.00076e+02	2.60300e+03	0.0214297	700.0
2604	7.00077e+02	2.60400e+03	0.0214155	700.0
2605	7.00077e+02	2.60500e+03	0.0214045	700.0
2606	7.00074e+02	2.60600e+03	0.021396	700.0
2607	7.00072e+02	2.60700e+03	0.0213889	700.0
2608	7.00082e+02	2.60800e+03	0.0213925	700.0
2609	7.00080e+02	2.60900e+03	0.0213949	700.0
2610	7.00078e+02	2.61000e+03	0.0213998	700.0
2611	7.00075e+02	2.61100e+03	0.0214067	700.0
2612	7.00076e+02	2.61200e+03	0.0214241	700.0
2613	7.00065e+02	2.61300e+03	0.0214382	700.0
2614	7.00083e+02	2.61400e+03	0.0214514	700.0
2615	7.00078e+02	2.61500e+03	0.0214647	700.0
2616	7.00086e+02	2.61600e+03	0.0214818	700.0
2617	7.00070e+02	2.61700e+03	0.0214967	700.0
2618	7.00074e+02	2.61800e+03	0.021511	700.0
2619	7.00080e+02	2.61900e+03	0.0215247	700.0
2620	7.00082e+02	2.62000e+03	0.0215278	700.0
2621	7.00073e+02	2.62100e+03	0.0215276	700.0
2622	7.00074e+02	2.62200e+03	0.0215227	700.0
2623	7.00080e+02	2.62300e+03	0.0215145	700.0
2624	7.00073e+02	2.62400e+03	0.0214903	700.0
2625	7.00072e+02	2.62500e+03	0.0214729	700.0
2626	7.00076e+02	2.62600e+03	0.0214567	700.0
2627	7.00075e+02	2.62700e+03	0.021441	700.0
2628	7.00073e+02	2.62800e+03	0.0214272	700.0
2629	7.00075e+02	2.62900e+03	0.0214159	700.0
2630	7.00070e+02	2.63000e+03	0.021405	700.0
2631	7.00076e+02	2.63100e+03	0.0213947	700.0
2632	7.00062e+02	2.63200e+03	0.0213983	700.0
2633	7.00070e+02	2.63300e+03	0.0214012	700.0
2634	7.00070e+02	2.63400e+03	0.0214068	700.0
2635	7.00077e+02	2.63500e+03	0.0214145	700.0
2636	7.00060e+02	2.63600e+03	0.0214321	700.0
2637	7.00083e+02	2.63700e+03	0.0214446	700.0
2638	7.00075e+02	2.63800e+03	0.0214552	700.0
2639	7.00076e+02	2.63900e+03	0.0214647	700.0
2640	7.00071e+02	2.64000e+03	0.0214619	700.0
2641	7.00070e+02	2.64100e+03	0.0214531	700.0
2642	7.00073e+02	2.64200e+03	0.0214401	700.0
2643	7.00075e+02	2.64300e+03	0.0214247	700.0
2644	7.00072e+02	2.64400e+03	0.0213876	700.0
2645	7.00077e+02	2.64500e+03	0.0213622	700.0
2646	7.00086e+02	2.64600e+03	0.0213428	700.0
2647	7.00072e+02	2.64700e+03	0.0213272	700.0
2648	7.00067e+02	2.64800e+03	0.0213205	700.0
2649	7.00060e+02	2.64900e+03	0.0213145	700.0
2650	7.00075e+02	2.65000e+03	0.0213103	700.0
2651	7.00074e+02	2.65100e+03	0.0213073	700.0
2652	7.00078e+02	2.65200e+03	0.0213172	700.0
2653	7.00081e+02	2.65300e+03	0.0213207	700.0
2654	7.00077e+02	2.65400e+03	0.0213238	700.0
2655	7.00077e+02	2.65500e+03	0.0213276	700.0
2656	7.00072e+02	2.65600e+03	0.0213323	700.0
2657	7.00068e+02	2.65700e+03	0.0213385	700.0
2658	7.00069e+02	2.65800e+03	0.0213455	700.0
2659	7.00070e+02	2.65900e+03	0.021353	700.0
2660	7.00071e+02	2.66000e+03	0.0213641	700.0
2661	7.00076e+02	2.66100e+03	0.0213732	700.0
2662	7.00078e+02	2.66200e+03	0.0213815	700.0
2663	7.00074e+02	2.66300e+03	0.0213896	700.0
2664	7.00076e+02	2.66400e+03	0.0213958	700.0
2665	7.00073e+02	2.66500e+03	0.0214016	700.0
2666	7.00063e+02	2.66600e+03	0.0214067	700.0
2667	7.00074e+02	2.66700e+03	0.0214112	700.0
2668	7.00074e+02	2.66800e+03	0.0214123	700.0
2669	7.00073e+02	2.66900e+03	0.0214145	700.0
2670	7.00067e+02	2.67000e+03	0.0214164	700.0
2671	7.00064e+02	2.67100e+03	0.021418	700.0
2672	7.00066e+02	2.67200e+03	0.0214174	700.0
2673	7.00072e+02	2.67300e+03	0.0214166	700.0
2674	7.00073e+02	2.67400e+03	0.0214147	700.0
2675	7.00063e+02	2.67500e+03	0.0214119	700.0
2676	7.00071e+02	2.67600e+03	0.0214058	700.0
2677	7.00070e+02	2.67700e+03	0.0214007	700.0
2678	7.00061e+02	2.67800e+03	0.0213952	700.0
2679	7.00068e+02	2.67900e+03	0.0213883	700.0
2680	7.00069e+02	2.68000e+03	0.0213733	700.0
2681	7.00060e+02	2.68100e+03	0.0213544	700.0
2682	7.00066e+02	2.68200e+03	0.0213318	700.0
2683	7.00071e+02	2.68300e+03	0.0213083	700.0
2684	7.00072e+02	2.68400e+03	0.0212754	700.0
2685	7.00064e+02	2.68500e+03	0.02125	700.0
2686	7.00060e+02	2.68600e+03	0.0212278	700.0
2687	7.00063e+02	2.68700e+03	0.0212076	700.0
2688	7.00064e+02	2.68800e+03	0.021196	700.0
2689	7.00062e+02	2.68900e+03	0.0211843	700.0
2690	7.00060e+02	2.69000e+03	0.0211739	700.0
2691	7.00069e+02	2.69100e+03	0.0211645	700.0
2692	7.00066e+02	2.69200e+03	0.0211639	700.0
2693	7.00068e+02	2.69300e+03	0.0211634	700.0
2694	7.00071e+02	2.69400e+03	0.0211679	700.0
2695	7.00071e+02	2.69500e+03	0.0211762	700.0
2696	7.00061e+02	2.69600e+03	0.021194	700.0
2697	7.00067e+02	2.69700e+03	0.0212097	700.0
2698	7.00068e+02	2.69800e+03	0.0212256	700.0
2699	7.00069e+02	2.69900e+03	0.0212419	700.0
2700	7.00067e+02	2.70000e+03	0.0212677	700.0
2701	7.00068e+02	2.70100e+03	0.0212884	700.0
2702	7.00071e+02	2.70200e+03	0.021308	700.0
2703	7.00066e+02	2.70300e+03	0.0213285	700.0
2704	7.00066e+02	2.70400e+03	0.0213499	700.0
2705	7.00071e+02	2.70500e+03	0.0213698	700.0
2706	7.00072e+02	2.70600e+03	0.0213849	700.0
2707	7.00068e+02	2.70700e+03	0.0213947	700.0
2708	7.00069e+02	2.70800e+03	0.0213901	700.0
2709	7.00072e+02	2.70900e+03	0.0213822	700.0
2710	7.00075e+02	2.71000e+03	0.0213706	700.0
2711	7.00059e+02	2.71100e+03	0.0213562	700.0
2712	7.00059e+02	2.71200e+03	0.021339	700.0
2713	7.00072e+02	2.71300e+03	0.021318	700.0
2714	7.00080e+02	2.71400e+03	0.0212971	700.0
2715	7.00070e+02	2.71500e+03	0.0212797	700.0
2716	7.00065e+02	2.71600e+03	0.0212694	700.0
2717	7.00063e+02	2.71700e+03	0.0212653	700.0
2718	7.00062e+02	2.71800e+03	0.0212645	700.0
2719	7.00069e+02	2.71900e+03	0.0212659	700.0
2720	7.00059e+02	2.72000e+03	0.0212683	700.0
