Index	Ts	t	Weight	Tr
[#]	[°C]	[s]	[mg]	[°C]
680	1.30273e+02	6.80000e+02	3.03773	130.0
681	1.30794e+02	6.81000e+02	3.03768	130.5
682	1.31307e+02	6.82000e+02	3.03762	131.0
683	1.31824e+02	6.83000e+02	3.03756	131.5
684	1.32339e+02	6.84000e+02	3.03748	132.0
685	1.32850e+02	6.85000e+02	3.03742	132.5
686	1.33348e+02	6.86000e+02	3.03736	133.0
687	1.33873e+02	6.87000e+02	3.0373	133.5
688	1.34373e+02	6.88000e+02	3.03726	134.0
689	1.34876e+02	6.89000e+02	3.03721	134.5
690	1.35388e+02	6.90000e+02	3.03717	135.0
691	1.35882e+02	6.91000e+02	3.03713	135.5
692	1.36395e+02	6.92000e+02	3.03711	136.0
693	1.36911e+02	6.93000e+02	3.03707	136.5
694	1.37421e+02	6.94000e+02	3.03702	137.0
695	1.37921e+02	6.95000e+02	3.03697	137.5
696	1.38439e+02	6.96000e+02	3.03689	138.0
697	1.38947e+02	6.97000e+02	3.03681	138.5
698	1.39462e+02	6.98000e+02	3.03673	139.0
699	1.39975e+02	6.99000e+02	3.03664	139.5
700	1.40474e+02	7.00000e+02	3.03653	140.0
701	1.40993e+02	7.01000e+02	3.03643	140.5
702	1.41492e+02	7.02000e+02	3.03632	141.0
703	1.41999e+02	7.03000e+02	3.0362	141.5
704	1.42516e+02	7.04000e+02	3.03607	142.0
705	1.43018e+02	7.05000e+02	3.03592	142.5
706	1.43528e+02	7.06000e+02	3.03576	143.0
707	1.44038e+02	7.07000e+02	3.03559	143.5
708	1.44550e+02	7.08000e+02	3.03539	144.0
709	1.45049e+02	7.09000e+02	3.03522	144.5
710	1.45565e+02	7.10000e+02	3.03507	145.0
711	1.46077e+02	7.11000e+02	3.03492	145.5
712	1.46572e+02	7.12000e+02	3.03481	146.0
713	1.47088e+02	7.13000e+02	3.0347	146.5
714	1.47598e+02	7.14000e+02	3.03459	147.0
715	1.48113e+02	7.15000e+02	3.0345	147.5
716	1.48604e+02	7.16000e+02	3.03445	148.0
717	1.49123e+02	7.17000e+02	3.03437	148.5
718	1.49625e+02	7.18000e+02	3.03429	149.0
719	1.50142e+02	7.19000e+02	3.03421	149.5
720	1.50650e+02	7.20000e+02	3.03409	150.0
721	1.51166e+02	7.21000e+02	3.03396	150.5
722	1.51666e+02	7.22000e+02	3.03381	151.0
723	1.52177e+02	7.23000e+02	3.03363	151.5
724	1.52684e+02	7.24000e+02	3.03338	152.0
725	1.53192e+02	7.25000e+02	3.03314	152.5
726	1.53694e+02	7.26000e+02	3.0329	153.0
727	1.54212e+02	7.27000e+02	3.03265	153.5
728	1.54716e+02	7.28000e+02	3.03238	154.0
729	1.55218e+02	7.29000e+02	3.03212	154.5
730	1.55736e+02	7.30000e+02	3.03188	155.0
731	1.56239e+02	7.31000e+02	3.03163	155.5
732	1.56748e+02	7.32000e+02	3.03141	156.0
733	1.57258e+02	7.33000e+02	3.03119	156.5
734	1.57778e+02	7.34000e+02	3.03097	157.0
735	1.58281e+02	7.35000e+02	3.03075	157.5
736	1.58780e+02	7.36000e+02	3.03055	158.0
737	1.59290e+02	7.37000e+02	3.03033	158.5
738	1.59804e+02	7.38000e+02	3.03012	159.0
739	1.60322e+02	7.39000e+02	3.0299	159.5
740	1.60818e+02	7.40000e+02	3.02968	160.0
741	1.61338e+02	7.41000e+02	3.02946	160.5
742	1.61833e+02	7.42000e+02	3.02924	161.0
743	1.62351e+02	7.43000e+02	3.02902	161.5
744	1.62852e+02	7.44000e+02	3.0288	162.0
745	1.63358e+02	7.45000e+02	3.02857	162.5
746	1.63889e+02	7.46000e+02	3.02834	163.0
747	1.64379e+02	7.47000e+02	3.02811	163.5
748	1.64899e+02	7.48000e+02	3.02787	164.0
749	1.65405e+02	7.49000e+02	3.02764	164.5
750	1.65901e+02	7.50000e+02	3.02741	165.0
751	1.66411e+02	7.51000e+02	3.02718	165.5
752	1.66916e+02	7.52000e+02	3.02696	166.0
753	1.67436e+02	7.53000e+02	3.02673	166.5
754	1.67940e+02	7.54000e+02	3.0265	167.0
755	1.68453e+02	7.55000e+02	3.02626	167.5
756	1.68959e+02	7.56000e+02	3.02602	168.0
757	1.69466e+02	7.57000e+02	3.02577	168.5
758	1.69987e+02	7.58000e+02	3.02553	169.0
759	1.70487e+02	7.59000e+02	3.02528	169.5
760	1.70994e+02	7.60000e+02	3.02503	170.0
761	1.71513e+02	7.61000e+02	3.02478	170.5
762	1.72022e+02	7.62000e+02	3.02453	171.0
763	1.72532e+02	7.63000e+02	3.02428	171.5
764	1.73036e+02	7.64000e+02	3.02403	172.0
765	1.73547e+02	7.65000e+02	3.02376	172.5
766	1.74059e+02	7.66000e+02	3.02349	173.0
767	1.74585e+02	7.67000e+02	3.02322	173.5
768	1.75086e+02	7.68000e+02	3.02292	174.0
769	1.75605e+02	7.69000e+02	3.02263	174.5
770	1.76109e+02	7.70000e+02	3.02232	175.0
771	1.76617e+02	7.71000e+02	3.02201	175.5
772	1.77136e+02	7.72000e+02	3.02166	176.0
773	1.77645e+02	7.73000e+02	3.02132	176.5
774	1.78148e+02	7.74000e+02	3.02097	177.0
775	1.78650e+02	7.75000e+02	3.02061	177.5
776	1.79164e+02	7.76000e+02	3.02023	178.0
777	1.79683e+02	7.77000e+02	3.01987	178.5
778	1.80201e+02	7.78000e+02	3.0195	179.0
779	1.80709e+02	7.79000e+02	3.01914	179.5
780	1.81220e+02	7.80000e+02	3.01877	180.0
781	1.81737e+02	7.81000e+02	3.0184	180.5
782	1.82232e+02	7.82000e+02	3.01802	181.0
783	1.82758e+02	7.83000e+02	3.01763	181.5
784	1.83257e+02	7.84000e+02	3.01721	182.0
785	1.83783e+02	7.85000e+02	3.0168	182.5
786	1.84300e+02	7.86000e+02	3.01637	183.0
787	1.84793e+02	7.87000e+02	3.01593	183.5
788	1.85314e+02	7.88000e+02	3.01545	184.0
789	1.85823e+02	7.89000e+02	3.01497	184.5
790	1.86329e+02	7.90000e+02	3.01448	185.0
791	1.86840e+02	7.91000e+02	3.01397	185.5
792	1.87356e+02	7.92000e+02	3.01341	186.0
793	1.87868e+02	7.93000e+02	3.01285	186.5
794	1.88371e+02	7.94000e+02	3.01229	187.0
795	1.88879e+02	7.95000e+02	3.01171	187.5
796	1.89412e+02	7.96000e+02	3.01107	188.0
797	1.89906e+02	7.97000e+02	3.01044	188.5
798	1.90418e+02	7.98000e+02	3.00979	189.0
799	1.90945e+02	7.99000e+02	3.00912	189.5
800	1.91443e+02	8.00000e+02	3.00839	190.0
801	1.91960e+02	8.01000e+02	3.00768	190.5
802	1.92491e+02	8.02000e+02	3.00696	191.0
803	1.93006e+02	8.03000e+02	3.00623	191.5
804	1.93499e+02	8.04000e+02	3.00544	192.0
805	1.94005e+02	8.05000e+02	3.00466	192.5
806	1.94531e+02	8.06000e+02	3.00387	193.0
807	1.95044e+02	8.07000e+02	3.00307	193.5
808	1.95567e+02	8.08000e+02	3.00222	194.0
809	1.96078e+02	8.09000e+02	3.00138	194.5
810	1.96595e+02	8.10000e+02	3.00053	195.0
811	1.97106e+02	8.11000e+02	2.99968	195.5
812	1.97627e+02	8.12000e+02	2.99879	196.0
813	1.98128e+02	8.13000e+02	2.9979	196.5
814	1.98635e+02	8.14000e+02	2.997	197.0
815	1.99144e+02	8.15000e+02	2.9961	197.5
816	1.99662e+02	8.16000e+02	2.99517	198.0
817	2.00176e+02	8.17000e+02	2.99425	198.5
818	2.00699e+02	8.18000e+02	2.99333	199.0
819	2.01218e+02	8.19000e+02	2.99242	199.5
820	2.01723e+02	8.20000e+02	2.99151	200.0
821	2.02242e+02	8.21000e+02	2.99061	200.5
822	2.02760e+02	8.22000e+02	2.98972	201.0
823	2.03275e+02	8.23000e+02	2.98883	201.5
824	2.03786e+02	8.24000e+02	2.98798	202.0
825	2.04309e+02	8.25000e+02	2.98714	202.5
826	2.04820e+02	8.26000e+02	2.98631	203.0
827	2.05338e+02	8.27000e+02	2.98551	203.5
828	2.05850e+02	8.28000e+02	2.98477	204.0
829	2.06359e+02	8.29000e+02	2.98403	204.5
830	2.06862e+02	8.30000e+02	2.9833	205.0
831	2.07391e+02	8.31000e+02	2.98258	205.5
832	2.07894e+02	8.32000e+02	2.98193	206.0
833	2.08416e+02	8.33000e+02	2.98126	206.5
834	2.08920e+02	8.34000e+02	2.98062	207.0
835	2.09430e+02	8.35000e+02	2.97998	207.5
836	2.09944e+02	8.36000e+02	2.97941	208.0
837	2.10444e+02	8.37000e+02	2.97884	208.5
838	2.10961e+02	8.38000e+02	2.97828	209.0
839	2.11467e+02	8.39000e+02	2.97773	209.5
840	2.11975e+02	8.40000e+02	2.97725	210.0
841	2.12486e+02	8.41000e+02	2.97676	210.5
842	2.13012e+02	8.42000e+02	2.97629	211.0
843	2.13523e+02	8.43000e+02	2.97584	211.5
844	2.14040e+02	8.44000e+02	2.97545	212.0
845	2.14548e+02	8.45000e+02	2.97506	212.5
846	2.15069e+02	8.46000e+02	2.97467	213.0
847	2.15572e+02	8.47000e+02	2.97428	213.5
848	2.16102e+02	8.48000e+02	2.97395	214.0
849	2.16605e+02	8.49000e+02	2.9736	214.5
850	2.17130e+02	8.50000e+02	2.97325	215.0
851	2.17629e+02	8.51000e+02	2.97291	215.5
852	2.18146e+02	8.52000e+02	2.97258	216.0
853	2.18666e+02	8.53000e+02	2.97226	216.5
854	2.19170e+02	8.54000e+02	2.97195	217.0
855	2.19678e+02	8.55000e+02	2.97163	217.5
856	2.20194e+02	8.56000e+02	2.97134	218.0
857	2.20690e+02	8.57000e+02	2.97105	218.5
858	2.21215e+02	8.58000e+02	2.97076	219.0
859	2.21733e+02	8.59000e+02	2.97047	219.5
860	2.22238e+02	8.60000e+02	2.97021	220.0
861	2.22747e+02	8.61000e+02	2.96994	220.5
862	2.23270e+02	8.62000e+02	2.96967	221.0
863	2.23789e+02	8.63000e+02	2.9694	221.5
864	2.24291e+02	8.64000e+02	2.96914	222.0
865	2.24820e+02	8.65000e+02	2.96886	222.5
866	2.25341e+02	8.66000e+02	2.96859	223.0
867	2.25854e+02	8.67000e+02	2.96832	223.5
868	2.26366e+02	8.68000e+02	2.96804	224.0
869	2.26899e+02	8.69000e+02	2.96778	224.5
870	2.27404e+02	8.70000e+02	2.96751	225.0
871	2.27925e+02	8.71000e+02	2.96724	225.5
872	2.28439e+02	8.72000e+02	2.96699	226.0
873	2.28965e+02	8.73000e+02	2.96672	226.5
874	2.29474e+02	8.74000e+02	2.96646	227.0
875	2.29995e+02	8.75000e+02	2.96619	227.5
876	2.30508e+02	8.76000e+02	2.96593	228.0
877	2.31010e+02	8.77000e+02	2.96567	228.5
878	2.31533e+02	8.78000e+02	2.9654	229.0
879	2.32050e+02	8.79000e+02	2.96514	229.5
880	2.32581e+02	8.80000e+02	2.96487	230.0
881	2.33100e+02	8.81000e+02	2.9646	230.5
882	2.33630e+02	8.82000e+02	2.96432	231.0
883	2.34167e+02	8.83000e+02	2.96403	231.5
884	2.34687e+02	8.84000e+02	2.96373	232.0
885	2.35197e+02	8.85000e+02	2.96344	232.5
886	2.35722e+02	8.86000e+02	2.96314	233.0
887	2.36226e+02	8.87000e+02	2.96285	233.5
888	2.36754e+02	8.88000e+02	2.96254	234.0
889	2.37274e+02	8.89000e+02	2.96223	234.5
890	2.37778e+02	8.90000e+02	2.96191	235.0
891	2.38299e+02	8.91000e+02	2.96159	235.5
892	2.38825e+02	8.92000e+02	2.96125	236.0
893	2.39336e+02	8.93000e+02	2.96091	236.5
894	2.39847e+02	8.94000e+02	2.96058	237.0
895	2.40358e+02	8.95000e+02	2.96024	237.5
896	2.40874e+02	8.96000e+02	2.9599	238.0
897	2.41394e+02	8.97000e+02	2.95955	238.5
898	2.41911e+02	8.98000e+02	2.9592	239.0
899	2.42420e+02	8.99000e+02	2.95884	239.5
900	2.42932e+02	9.00000e+02	2.95847	240.0
901	2.43447e+02	9.01000e+02	2.95811	240.5
902	2.43960e+02	9.02000e+02	2.95776	241.0
903	2.44476e+02	9.03000e+02	2.95741	241.5
904	2.44998e+02	9.04000e+02	2.95707	242.0
905	2.45510e+02	9.05000e+02	2.95673	242.5
906	2.46016e+02	9.06000e+02	2.95639	243.0
907	2.46536e+02	9.07000e+02	2.95606	243.5
908	2.47062e+02	9.08000e+02	2.95573	244.0
909	2.47601e+02	9.09000e+02	2.95539	244.5
910	2.48093e+02	9.10000e+02	2.95506	245.0
911	2.48605e+02	9.11000e+02	2.95473	245.5
912	2.49130e+02	9.12000e+02	2.95439	246.0
913	2.49641e+02	9.13000e+02	2.95405	246.5
914	2.50148e+02	9.14000e+02	2.95372	247.0
915	2.50654e+02	9.15000e+02	2.95338	247.5
916	2.51154e+02	9.16000e+02	2.95304	248.0
917	2.51675e+02	9.17000e+02	2.95272	248.5
918	2.52172e+02	9.18000e+02	2.9524	249.0
919	2.52684e+02	9.19000e+02	2.9521	249.5
920	2.53186e+02	9.20000e+02	2.95181	250.0
921	2.53697e+02	9.21000e+02	2.95153	250.5
922	2.54198e+02	9.22000e+02	2.95124	251.0
923	2.54691e+02	9.23000e+02	2.95095	251.5
924	2.55200e+02	9.24000e+02	2.95067	252.0
925	2.55718e+02	9.25000e+02	2.95037	252.5
926	2.56216e+02	9.26000e+02	2.95008	253.0
927	2.56731e+02	9.27000e+02	2.94978	253.5
928	2.57237e+02	9.28000e+02	2.94947	254.0
929	2.57755e+02	9.29000e+02	2.94917	254.5
930	2.58267e+02	9.30000e+02	2.94887	255.0
931	2.58821e+02	9.31000e+02	2.94857	255.5
932	2.59353e+02	9.32000e+02	2.94828	256.0
933	2.59858e+02	9.33000e+02	2.94798	256.5
934	2.60354e+02	9.34000e+02	2.94768	257.0
935	2.60859e+02	9.35000e+02	2.94739	257.5
936	2.61362e+02	9.36000e+02	2.9471	258.0
937	2.61860e+02	9.37000e+02	2.94681	258.5
938	2.62366e+02	9.38000e+02	2.94653	259.0
939	2.62878e+02	9.39000e+02	2.94624	259.5
940	2.63390e+02	9.40000e+02	2.94597	260.0
941	2.63890e+02	9.41000e+02	2.94568	260.5
942	2.64388e+02	9.42000e+02	2.9454	261.0
943	2.64904e+02	9.43000e+02	2.94511	261.5
944	2.65406e+02	9.44000e+02	2.94481	262.0
945	2.65905e+02	9.45000e+02	2.94452	262.5
946	2.66399e+02	9.46000e+02	2.94422	263.0
947	2.66895e+02	9.47000e+02	2.94392	263.5
948	2.67409e+02	9.48000e+02	2.94362	264.0
949	2.67899e+02	9.49000e+02	2.94331	264.5
950	2.68389e+02	9.50000e+02	2.94301	265.0
951	2.68897e+02	9.51000e+02	2.94271	265.5
952	2.69424e+02	9.52000e+02	2.94242	266.0
953	2.69958e+02	9.53000e+02	2.94212	266.5
954	2.70468e+02	9.54000e+02	2.94183	267.0
955	2.70974e+02	9.55000e+02	2.94153	267.5
956	2.71499e+02	9.56000e+02	2.94123	268.0
957	2.72009e+02	9.57000e+02	2.94092	268.5
958	2.72512e+02	9.58000e+02	2.94061	269.0
959	2.73001e+02	9.59000e+02	2.94028	269.5
960	2.73498e+02	9.60000e+02	2.93993	270.0
961	2.74003e+02	9.61000e+02	2.93959	270.5
962	2.74512e+02	9.62000e+02	2.93925	271.0
963	2.75022e+02	9.63000e+02	2.9389	271.5
964	2.75520e+02	9.64000e+02	2.93853	272.0
965	2.76031e+02	9.65000e+02	2.93816	272.5
966	2.76546e+02	9.66000e+02	2.93779	273.0
967	2.77051e+02	9.67000e+02	2.93741	273.5
968	2.77562e+02	9.68000e+02	2.937	274.0
969	2.78077e+02	9.69000e+02	2.9366	274.5
970	2.78585e+02	9.70000e+02	2.93619	275.0
971	2.79096e+02	9.71000e+02	2.93578	275.5
972	2.79619e+02	9.72000e+02	2.93535	276.0
973	2.80140e+02	9.73000e+02	2.9349	276.5
974	2.80671e+02	9.74000e+02	2.93445	277.0
975	2.81162e+02	9.75000e+02	2.93399	277.5
976	2.81676e+02	9.76000e+02	2.93348	278.0
977	2.82189e+02	9.77000e+02	2.93298	278.5
978	2.82679e+02	9.78000e+02	2.93248	279.0
979	2.83189e+02	9.79000e+02	2.93197	279.5
980	2.83686e+02	9.80000e+02	2.93143	280.0
981	2.84213e+02	9.81000e+02	2.9309	280.5
982	2.84704e+02	9.82000e+02	2.93035	281.0
983	2.85227e+02	9.83000e+02	2.9298	281.5
984	2.85735e+02	9.84000e+02	2.92921	282.0
985	2.86228e+02	9.85000e+02	2.92862	282.5
986	2.86725e+02	9.86000e+02	2.928	283.0
987	2.87218e+02	9.87000e+02	2.92738	283.5
988	2.87701e+02	9.88000e+02	2.92667	284.0
989	2.88199e+02	9.89000e+02	2.92596	284.5
990	2.88694e+02	9.90000e+02	2.92523	285.0
991	2.89178e+02	9.91000e+02	2.92447	285.5
992	2.89667e+02	9.92000e+02	2.92362	286.0
993	2.90172e+02	9.93000e+02	2.92279	286.5
994	2.90681e+02	9.94000e+02	2.92194	287.0
995	2.91186e+02	9.95000e+02	2.92107	287.5
996	2.91703e+02	9.96000e+02	2.92012	288.0
997	2.92216e+02	9.97000e+02	2.91917	288.5
998	2.92720e+02	9.98000e+02	2.9182	289.0
999	2.93233e+02	9.99000e+02	2.91721	289.5
1000	2.93735e+02	1.00000e+03	2.91612	290.0
1001	2.94248e+02	1.00100e+03	2.91504	290.5
1002	2.94761e+02	1.00200e+03	2.91396	291.0
1003	2.95294e+02	1.00300e+03	2.91286	291.5
1004	2.95804e+02	1.00400e+03	2.91167	292.0
1005	2.96323e+02	1.00500e+03	2.91049	292.5
1006	2.96834e+02	1.00600e+03	2.90928	293.0
1007	2.97330e+02	1.00700e+03	2.90805	293.5
1008	2.97845e+02	1.00800e+03	2.90671	294.0
1009	2.98366e+02	1.00900e+03	2.90537	294.5
1010	2.98892e+02	1.01000e+03	2.90401	295.0
1011	2.99415e+02	1.01100e+03	2.90262	295.5
1012	2.99928e+02	1.01200e+03	2.90108	296.0
1013	3.00447e+02	1.01300e+03	2.89957	296.5
1014	3.00966e+02	1.01400e+03	2.89802	297.0
1015	3.01480e+02	1.01500e+03	2.89645	297.5
1016	3.02015e+02	1.01600e+03	2.89473	298.0
1017	3.02522e+02	1.01700e+03	2.89304	298.5
1018	3.03035e+02	1.01800e+03	2.89131	299.0
1019	3.03540e+02	1.01900e+03	2.88956	299.5
1020	3.04049e+02	1.02000e+03	2.88768	300.0
1021	3.04562e+02	1.02100e+03	2.88582	300.5
1022	3.05083e+02	1.02200e+03	2.88393	301.0
1023	3.05607e+02	1.02300e+03	2.88203	301.5
1024	3.06085e+02	1.02400e+03	2.88001	302.0
1025	3.06587e+02	1.02500e+03	2.87801	302.5
1026	3.07076e+02	1.02600e+03	2.87599	303.0
1027	3.07576e+02	1.02700e+03	2.87395	303.5
1028	3.08062e+02	1.02800e+03	2.8718	304.0
1029	3.08545e+02	1.02900e+03	2.86968	304.5
1030	3.09037e+02	1.03000e+03	2.86753	305.0
1031	3.09534e+02	1.03100e+03	2.86536	305.5
1032	3.10030e+02	1.03200e+03	2.86309	306.0
1033	3.10511e+02	1.03300e+03	2.86082	306.5
1034	3.11011e+02	1.03400e+03	2.85853	307.0
1035	3.11490e+02	1.03500e+03	2.85622	307.5
1036	3.11985e+02	1.03600e+03	2.8538	308.0
1037	3.12457e+02	1.03700e+03	2.8514	308.5
1038	3.12950e+02	1.03800e+03	2.84899	309.0
1039	3.13410e+02	1.03900e+03	2.84656	309.5
1040	3.13876e+02	1.04000e+03	2.84406	310.0
1041	3.14323e+02	1.04100e+03	2.84156	310.5
1042	3.14782e+02	1.04200e+03	2.83905	311.0
1043	3.15228e+02	1.04300e+03	2.83653	311.5
1044	3.15664e+02	1.04400e+03	2.83395	312.0
1045	3.16111e+02	1.04500e+03	2.83139	312.5
1046	3.16566e+02	1.04600e+03	2.82882	313.0
1047	3.17030e+02	1.04700e+03	2.82624	313.5
1048	3.17499e+02	1.04800e+03	2.82363	314.0
1049	3.17962e+02	1.04900e+03	2.82101	314.5
1050	3.18438e+02	1.05000e+03	2.81838	315.0
1051	3.18904e+02	1.05100e+03	2.81575	315.5
1052	3.19366e+02	1.05200e+03	2.81309	316.0
1053	3.19837e+02	1.05300e+03	2.81044	316.5
1054	3.20297e+02	1.05400e+03	2.8078	317.0
1055	3.20759e+02	1.05500e+03	2.80515	317.5
1056	3.21220e+02	1.05600e+03	2.80248	318.0
1057	3.21697e+02	1.05700e+03	2.7998	318.5
1058	3.22170e+02	1.05800e+03	2.7971	319.0
1059	3.22619e+02	1.05900e+03	2.79438	319.5
1060	3.23098e+02	1.06000e+03	2.79161	320.0
1061	3.23585e+02	1.06100e+03	2.78883	320.5
1062	3.24065e+02	1.06200e+03	2.78604	321.0
1063	3.24547e+02	1.06300e+03	2.78324	321.5
1064	3.25034e+02	1.06400e+03	2.78033	322.0
1065	3.25516e+02	1.06500e+03	2.77743	322.5
1066	3.25999e+02	1.06600e+03	2.7745	323.0
1067	3.26501e+02	1.06700e+03	2.77155	323.5
1068	3.26997e+02	1.06800e+03	2.76847	324.0
1069	3.27469e+02	1.06900e+03	2.7654	324.5
1070	3.27955e+02	1.07000e+03	2.7623	325.0
1071	3.28421e+02	1.07100e+03	2.75918	325.5
1072	3.28891e+02	1.07200e+03	2.75591	326.0
1073	3.29356e+02	1.07300e+03	2.75265	326.5
1074	3.29830e+02	1.07400e+03	2.74934	327.0
1075	3.30316e+02	1.07500e+03	2.746	327.5
1076	3.30809e+02	1.07600e+03	2.74245	328.0
1077	3.31299e+02	1.07700e+03	2.73892	328.5
1078	3.31801e+02	1.07800e+03	2.73534	329.0
1079	3.32295e+02	1.07900e+03	2.73171	329.5
1080	3.32796e+02	1.08000e+03	2.72783	330.0
1081	3.33282e+02	1.08100e+03	2.72398	330.5
1082	3.33794e+02	1.08200e+03	2.72006	331.0
1083	3.34295e+02	1.08300e+03	2.71608	331.5
1084	3.34788e+02	1.08400e+03	2.7118	332.0
1085	3.35273e+02	1.08500e+03	2.70754	332.5
1086	3.35783e+02	1.08600e+03	2.7032	333.0
1087	3.36279e+02	1.08700e+03	2.69879	333.5
1088	3.36766e+02	1.08800e+03	2.69402	334.0
1089	3.37274e+02	1.08900e+03	2.68929	334.5
1090	3.37767e+02	1.09000e+03	2.68447	335.0
1091	3.38266e+02	1.09100e+03	2.67957	335.5
1092	3.38764e+02	1.09200e+03	2.67426	336.0
1093	3.39267e+02	1.09300e+03	2.66898	336.5
1094	3.39763e+02	1.09400e+03	2.6636	337.0
1095	3.40278e+02	1.09500e+03	2.65813	337.5
1096	3.40782e+02	1.09600e+03	2.65218	338.0
1097	3.41292e+02	1.09700e+03	2.64628	338.5
1098	3.41799e+02	1.09800e+03	2.64025	339.0
1099	3.42298e+02	1.09900e+03	2.63412	339.5
1100	3.42808e+02	1.10000e+03	2.62744	340.0
1101	3.43302e+02	1.10100e+03	2.6208	340.5
1102	3.43811e+02	1.10200e+03	2.61402	341.0
1103	3.44311e+02	1.10300e+03	2.60712	341.5
1104	3.44815e+02	1.10400e+03	2.5996	342.0
1105	3.45320e+02	1.10500e+03	2.59216	342.5
1106	3.45824e+02	1.10600e+03	2.58457	343.0
1107	3.46345e+02	1.10700e+03	2.57685	343.5
1108	3.46873e+02	1.10800e+03	2.56847	344.0
1109	3.47376e+02	1.10900e+03	2.56016	344.5
1110	3.47864e+02	1.11000e+03	2.5517	345.0
1111	3.48371e+02	1.11100e+03	2.5431	345.5
1112	3.48865e+02	1.11200e+03	2.53378	346.0
1113	3.49368e+02	1.11300e+03	2.52456	346.5
1114	3.49857e+02	1.11400e+03	2.51517	347.0
1115	3.50330e+02	1.11500e+03	2.50563	347.5
1116	3.50848e+02	1.11600e+03	2.49534	348.0
1117	3.51353e+02	1.11700e+03	2.48514	348.5
1118	3.51876e+02	1.11800e+03	2.47476	349.0
1119	3.52375e+02	1.11900e+03	2.46424	349.5
1120	3.52875e+02	1.12000e+03	2.45293	350.0
1121	3.53379e+02	1.12100e+03	2.44173	350.5
1122	3.53872e+02	1.12200e+03	2.43038	351.0
1123	3.54373e+02	1.12300e+03	2.41887	351.5
1124	3.54864e+02	1.12400e+03	2.40658	352.0
1125	3.55362e+02	1.12500e+03	2.39439	352.5
1126	3.55872e+02	1.12600e+03	2.38202	353.0
1127	3.56359e+02	1.12700e+03	2.36948	353.5
1128	3.56857e+02	1.12800e+03	2.35611	354.0
1129	3.57355e+02	1.12900e+03	2.34284	354.5
1130	3.57849e+02	1.13000e+03	2.32937	355.0
1131	3.58341e+02	1.13100e+03	2.31574	355.5
1132	3.58835e+02	1.13200e+03	2.30122	356.0
1133	3.59328e+02	1.13300e+03	2.28683	356.5
1134	3.59826e+02	1.13400e+03	2.27226	357.0
1135	3.60323e+02	1.13500e+03	2.25753	357.5
1136	3.60806e+02	1.13600e+03	2.24196	358.0
1137	3.61299e+02	1.13700e+03	2.22652	358.5
1138	3.61792e+02	1.13800e+03	2.21091	359.0
1139	3.62300e+02	1.13900e+03	2.19515	359.5
1140	3.62807e+02	1.14000e+03	2.17862	360.0
1141	3.63290e+02	1.14100e+03	2.1622	360.5
1142	3.63774e+02	1.14200e+03	2.14565	361.0
1143	3.64282e+02	1.14300e+03	2.12895	361.5
1144	3.64786e+02	1.14400e+03	2.11156	362.0
1145	3.65281e+02	1.14500e+03	2.09426	362.5
1146	3.65784e+02	1.14600e+03	2.07681	363.0
1147	3.66271e+02	1.14700e+03	2.05923	363.5
1148	3.66783e+02	1.14800e+03	2.04097	364.0
1149	3.67279e+02	1.14900e+03	2.02279	364.5
1150	3.67794e+02	1.15000e+03	2.00446	365.0
1151	3.68286e+02	1.15100e+03	1.98599	365.5
1152	3.68780e+02	1.15200e+03	1.96681	366.0
1153	3.69283e+02	1.15300e+03	1.94772	366.5
1154	3.69786e+02	1.15400e+03	1.92846	367.0
1155	3.70276e+02	1.15500e+03	1.90906	367.5
1156	3.70773e+02	1.15600e+03	1.88893	368.0
1157	3.71274e+02	1.15700e+03	1.8689	368.5
1158	3.71778e+02	1.15800e+03	1.84873	369.0
1159	3.72278e+02	1.15900e+03	1.82843	369.5
1160	3.72785e+02	1.16000e+03	1.80745	370.0
1161	3.73277e+02	1.16100e+03	1.78661	370.5
1162	3.73760e+02	1.16200e+03	1.76565	371.0
1163	3.74255e+02	1.16300e+03	1.74457	371.5
1164	3.74751e+02	1.16400e+03	1.72292	372.0
1165	3.75256e+02	1.16500e+03	1.70136	372.5
1166	3.75754e+02	1.16600e+03	1.6797	373.0
1167	3.76251e+02	1.16700e+03	1.65795	373.5
1168	3.76726e+02	1.16800e+03	1.6357	374.0
1169	3.77228e+02	1.16900e+03	1.61356	374.5
1170	3.77716e+02	1.17000e+03	1.59137	375.0
1171	3.78210e+02	1.17100e+03	1.56911	375.5
1172	3.78712e+02	1.17200e+03	1.54649	376.0
1173	3.79224e+02	1.17300e+03	1.52391	376.5
1174	3.79742e+02	1.17400e+03	1.50123	377.0
1175	3.80228e+02	1.17500e+03	1.47844	377.5
1176	3.80749e+02	1.17600e+03	1.45521	378.0
1177	3.81241e+02	1.17700e+03	1.43197	378.5
1178	3.81736e+02	1.17800e+03	1.40863	379.0
1179	3.82231e+02	1.17900e+03	1.38521	379.5
1180	3.82725e+02	1.18000e+03	1.36131	380.0
1181	3.83225e+02	1.18100e+03	1.3376	380.5
1182	3.83716e+02	1.18200e+03	1.31391	381.0
1183	3.84218e+02	1.18300e+03	1.29023	381.5
1184	3.84738e+02	1.18400e+03	1.26653	382.0
1185	3.85242e+02	1.18500e+03	1.24296	382.5
1186	3.85760e+02	1.18600e+03	1.2195	383.0
1187	3.86270e+02	1.18700e+03	1.1961	383.5
1188	3.86774e+02	1.18800e+03	1.17305	384.0
1189	3.87229e+02	1.18900e+03	1.14996	384.5
1190	3.87716e+02	1.19000e+03	1.12695	385.0
1191	3.88234e+02	1.19100e+03	1.104	385.5
1192	3.88763e+02	1.19200e+03	1.08137	386.0
1193	3.89256e+02	1.19300e+03	1.05862	386.5
1194	3.89745e+02	1.19400e+03	1.03589	387.0
1195	3.90244e+02	1.19500e+03	1.01319	387.5
1196	3.90729e+02	1.19600e+03	0.990638	388.0
1197	3.91236e+02	1.19700e+03	0.968088	388.5
1198	3.91760e+02	1.19800e+03	0.945593	389.0
1199	3.92264e+02	1.19900e+03	0.92315	389.5
1200	3.92772e+02	1.20000e+03	0.900953	390.0
1201	3.93291e+02	1.20100e+03	0.878773	390.5
1202	3.93788e+02	1.20200e+03	0.856686	391.0
1203	3.94331e+02	1.20300e+03	0.834678	391.5
1204	3.94840e+02	1.20400e+03	0.81306	392.0
1205	3.95364e+02	1.20500e+03	0.791407	392.5
1206	3.95877e+02	1.20600e+03	0.769854	393.0
1207	3.96372e+02	1.20700e+03	0.748392	393.5
1208	3.96869e+02	1.20800e+03	0.727438	394.0
1209	3.97358e+02	1.20900e+03	0.706481	394.5
1210	3.97864e+02	1.21000e+03	0.685703	395.0
1211	3.98365e+02	1.21100e+03	0.665077	395.5
1212	3.98896e+02	1.21200e+03	0.64522	396.0
1213	3.99420e+02	1.21300e+03	0.625344	396.5
1214	3.99930e+02	1.21400e+03	0.605695	397.0
1215	4.00435e+02	1.21500e+03	0.58624	397.5
1216	4.00960e+02	1.21600e+03	0.567804	398.0
1217	4.01460e+02	1.21700e+03	0.549268	398.5
1218	4.01973e+02	1.21800e+03	0.530985	399.0
1219	4.02466e+02	1.21900e+03	0.512931	399.5
1220	4.02951e+02	1.22000e+03	0.49602	400.0
1221	4.03447e+02	1.22100e+03	0.478996	400.5
1222	4.03978e+02	1.22200e+03	0.46224	401.0
1223	4.04491e+02	1.22300e+03	0.445723	401.5
1224	4.05002e+02	1.22400e+03	0.430438	402.0
1225	4.05519e+02	1.22500e+03	0.41498	402.5
1226	4.06041e+02	1.22600e+03	0.399782	403.0
1227	4.06577e+02	1.22700e+03	0.384824	403.5
1228	4.07085e+02	1.22800e+03	0.371094	404.0
1229	4.07609e+02	1.22900e+03	0.357212	404.5
1230	4.08106e+02	1.23000e+03	0.343596	405.0
1231	4.08628e+02	1.23100e+03	0.330221	405.5
1232	4.09149e+02	1.23200e+03	0.318085	406.0
1233	4.09665e+02	1.23300e+03	0.305768	406.5
1234	4.10183e+02	1.23400e+03	0.293702	407.0
1235	4.10692e+02	1.23500e+03	0.281873	407.5
1236	4.11218e+02	1.23600e+03	0.271237	408.0
1237	4.11744e+02	1.23700e+03	0.260435	408.5
1238	4.12245e+02	1.23800e+03	0.249872	409.0
1239	4.12745e+02	1.23900e+03	0.23953	409.5
1240	4.13251e+02	1.24000e+03	0.230323	410.0
1241	4.13748e+02	1.24100e+03	0.22093	410.5
1242	4.14259e+02	1.24200e+03	0.211747	411.0
1243	4.14753e+02	1.24300e+03	0.202765	411.5
1244	4.15246e+02	1.24400e+03	0.194819	412.0
1245	4.15759e+02	1.24500e+03	0.186721	412.5
1246	4.16254e+02	1.24600e+03	0.178824	413.0
1247	4.16762e+02	1.24700e+03	0.171114	413.5
1248	4.17259e+02	1.24800e+03	0.16437	414.0
1249	4.17773e+02	1.24900e+03	0.157466	414.5
1250	4.18282e+02	1.25000e+03	0.150735	415.0
1251	4.18788e+02	1.25100e+03	0.144169	415.5
1252	4.19300e+02	1.25200e+03	0.138464	416.0
1253	4.19805e+02	1.25300e+03	0.132626	416.5
1254	4.20297e+02	1.25400e+03	0.126953	417.0
1255	4.20787e+02	1.25500e+03	0.121435	417.5
1256	4.21289e+02	1.25600e+03	0.116698	418.0
1257	4.21778e+02	1.25700e+03	0.11183	418.5
1258	4.22277e+02	1.25800e+03	0.107096	419.0
1259	4.22780e+02	1.25900e+03	0.102492	419.5
1260	4.23287e+02	1.26000e+03	0.0985702	420.0
1261	4.23787e+02	1.26100e+03	0.0945323	420.5
1262	4.24299e+02	1.26200e+03	0.0906211	421.0
1263	4.24882e+02	1.26300e+03	0.086832	421.5
1264	4.25436e+02	1.26400e+03	0.0836459	422.0
1265	4.25946e+02	1.26500e+03	0.0803716	422.5
1266	4.26521e+02	1.26600e+03	0.0772111	423.0
1267	4.27070e+02	1.26700e+03	0.0741569	423.5
1268	4.27576e+02	1.26800e+03	0.0716638	424.0
1269	4.28068e+02	1.26900e+03	0.0690713	424.5
1270	4.28577e+02	1.27000e+03	0.0665746	425.0
1271	4.29090e+02	1.27100e+03	0.064171	425.5
1272	4.29621e+02	1.27200e+03	0.0622421	426.0
1273	4.30125e+02	1.27300e+03	0.0602288	426.5
1274	4.30653e+02	1.27400e+03	0.0582888	427.0
1275	4.31166e+02	1.27500e+03	0.0564208	427.5
1276	4.31642e+02	1.27600e+03	0.0549403	428.0
1277	4.32159e+02	1.27700e+03	0.0533804	428.5
1278	4.32659e+02	1.27800e+03	0.0518782	429.0
1279	4.33131e+02	1.27900e+03	0.050435	429.5
1280	4.33605e+02	1.28000e+03	0.0492826	430.0
1281	4.34106e+02	1.28100e+03	0.0480737	430.5
1282	4.34589e+02	1.28200e+03	0.0469053	431.0
1283	4.35101e+02	1.28300e+03	0.0457769	431.5
1284	4.35565e+02	1.28400e+03	0.044868	432.0
1285	4.36083e+02	1.28500e+03	0.0439124	432.5
1286	4.36590e+02	1.28600e+03	0.0429928	433.0
1287	4.37099e+02	1.28700e+03	0.0421102	433.5
1288	4.37610e+02	1.28800e+03	0.0414062	434.0
1289	4.38105e+02	1.28900e+03	0.0406832	434.5
1290	4.38594e+02	1.29000e+03	0.0399953	435.0
1291	4.39113e+02	1.29100e+03	0.039338	435.5
1292	4.39601e+02	1.29200e+03	0.0388519	436.0
1293	4.40092e+02	1.29300e+03	0.0383228	436.5
1294	4.40600e+02	1.29400e+03	0.0378119	437.0
1295	4.41098e+02	1.29500e+03	0.0373228	437.5
1296	4.41573e+02	1.29600e+03	0.0369402	438.0
1297	4.42083e+02	1.29700e+03	0.036533	438.5
1298	4.42566e+02	1.29800e+03	0.0361373	439.0
1299	4.43079e+02	1.29900e+03	0.0357543	439.5
1300	4.43620e+02	1.30000e+03	0.0354368	440.0
1301	4.44079e+02	1.30100e+03	0.0351003	440.5
1302	4.44591e+02	1.30200e+03	0.034772	441.0
1303	4.45056e+02	1.30300e+03	0.0344537	441.5
1304	4.45522e+02	1.30400e+03	0.034173	442.0
1305	4.46012e+02	1.30500e+03	0.0338884	442.5
1306	4.46500e+02	1.30600e+03	0.0336143	443.0
1307	4.46971e+02	1.30700e+03	0.0333491	443.5
1308	4.47466e+02	1.30800e+03	0.033128	444.0
1309	4.47962e+02	1.30900e+03	0.0329056	444.5
1310	4.48466e+02	1.31000e+03	0.0326972	445.0
1311	4.48945e+02	1.31100e+03	0.0324993	445.5
1312	4.49438e+02	1.31200e+03	0.0323581	446.0
1313	4.49912e+02	1.31300e+03	0.0322117	446.5
1314	4.50400e+02	1.31400e+03	0.0320785	447.0
1315	4.50873e+02	1.31500e+03	0.0319556	447.5
1316	4.51362e+02	1.31600e+03	0.0318848	448.0
1317	4.51830e+02	1.31700e+03	0.031797	448.5
1318	4.52334e+02	1.31800e+03	0.0317104	449.0
1319	4.52831e+02	1.31900e+03	0.0316261	449.5
1320	4.53326e+02	1.32000e+03	0.0315547	450.0
1321	4.53808e+02	1.32100e+03	0.0314741	450.5
1322	4.54308e+02	1.32200e+03	0.0313949	451.0
1323	4.54781e+02	1.32300e+03	0.03132	451.5
1324	4.55277e+02	1.32400e+03	0.0312495	452.0
1325	4.55774e+02	1.32500e+03	0.0311869	452.5
1326	4.56273e+02	1.32600e+03	0.0311302	453.0
1327	4.56763e+02	1.32700e+03	0.0310769	453.5
1328	4.57256e+02	1.32800e+03	0.0310477	454.0
1329	4.57745e+02	1.32900e+03	0.0310109	454.5
1330	4.58242e+02	1.33000e+03	0.0309766	455.0
1331	4.58723e+02	1.33100e+03	0.0309457	455.5
1332	4.59219e+02	1.33200e+03	0.0309285	456.0
1333	4.59718e+02	1.33300e+03	0.0309095	456.5
1334	4.60218e+02	1.33400e+03	0.0308913	457.0
1335	4.60711e+02	1.33500e+03	0.0308745	457.5
1336	4.61199e+02	1.33600e+03	0.0308739	458.0
1337	4.61692e+02	1.33700e+03	0.0308715	458.5
1338	4.62181e+02	1.33800e+03	0.0308732	459.0
1339	4.62669e+02	1.33900e+03	0.0308784	459.5
1340	4.63179e+02	1.34000e+03	0.030895	460.0
1341	4.63668e+02	1.34100e+03	0.0309059	460.5
1342	4.64168e+02	1.34200e+03	0.0309133	461.0
1343	4.64656e+02	1.34300e+03	0.0309183	461.5
1344	4.65148e+02	1.34400e+03	0.0309165	462.0
1345	4.65637e+02	1.34500e+03	0.0309079	462.5
1346	4.66155e+02	1.34600e+03	0.0308928	463.0
1347	4.66650e+02	1.34700e+03	0.0308737	463.5
1348	4.67154e+02	1.34800e+03	0.030831	464.0
1349	4.67668e+02	1.34900e+03	0.0307958	464.5
1350	4.68187e+02	1.35000e+03	0.0307596	465.0
1351	4.68695e+02	1.35100e+03	0.0307222	465.5
1352	4.69200e+02	1.35200e+03	0.0306808	466.0
1353	4.69708e+02	1.35300e+03	0.0306474	466.5
1354	4.70184e+02	1.35400e+03	0.0306198	467.0
1355	4.70694e+02	1.35500e+03	0.0305956	467.5
1356	4.71156e+02	1.35600e+03	0.0305814	468.0
1357	4.71639e+02	1.35700e+03	0.0305614	468.5
1358	4.72102e+02	1.35800e+03	0.0305376	469.0
1359	4.72574e+02	1.35900e+03	0.0305111	469.5
1360	4.73088e+02	1.36000e+03	0.0304853	470.0
1361	4.73559e+02	1.36100e+03	0.0304609	470.5
1362	4.74048e+02	1.36200e+03	0.0304407	471.0
1363	4.74527e+02	1.36300e+03	0.0304241	471.5
1364	4.75010e+02	1.36400e+03	0.0304159	472.0
1365	4.75504e+02	1.36500e+03	0.0304123	472.5
1366	4.76028e+02	1.36600e+03	0.0304131	473.0
1367	4.76506e+02	1.36700e+03	0.0304164	473.5
1368	4.76996e+02	1.36800e+03	0.0304392	474.0
1369	4.77497e+02	1.36900e+03	0.0304543	474.5
1370	4.77995e+02	1.37000e+03	0.0304699	475.0
1371	4.78476e+02	1.37100e+03	0.0304874	475.5
1372	4.78959e+02	1.37200e+03	0.0305088	476.0
1373	4.79454e+02	1.37300e+03	0.0305282	476.5
1374	4.79896e+02	1.37400e+03	0.0305449	477.0
1375	4.80374e+02	1.37500e+03	0.0305587	477.5
1376	4.80871e+02	1.37600e+03	0.0305652	478.0
1377	4.81353e+02	1.37700e+03	0.0305659	478.5
1378	4.81839e+02	1.37800e+03	0.0305622	479.0
1379	4.82339e+02	1.37900e+03	0.0305565	479.5
1380	4.82825e+02	1.38000e+03	0.0305343	480.0
1381	4.83311e+02	1.38100e+03	0.0305222	480.5
1382	4.83804e+02	1.38200e+03	0.0305122	481.0
1383	4.84310e+02	1.38300e+03	0.0305026	481.5
1384	4.84784e+02	1.38400e+03	0.0304997	482.0
1385	4.85292e+02	1.38500e+03	0.0304983	482.5
1386	4.85800e+02	1.38600e+03	0.0305005	483.0
1387	4.86300e+02	1.38700e+03	0.0305058	483.5
1388	4.86807e+02	1.38800e+03	0.0305239	484.0
1389	4.87306e+02	1.38900e+03	0.0305376	484.5
1390	4.87800e+02	1.39000e+03	0.0305483	485.0
1391	4.88310e+02	1.39100e+03	0.0305561	485.5
1392	4.88807e+02	1.39200e+03	0.0305527	486.0
1393	4.89269e+02	1.39300e+03	0.0305391	486.5
1394	4.89762e+02	1.39400e+03	0.0305185	487.0
1395	4.90255e+02	1.39500e+03	0.0304949	487.5
1396	4.90768e+02	1.39600e+03	0.0304449	488.0
1397	4.91287e+02	1.39700e+03	0.0304129	488.5
1398	4.91809e+02	1.39800e+03	0.0303862	489.0
1399	4.92344e+02	1.39900e+03	0.0303605	489.5
1400	4.92829e+02	1.40000e+03	0.0303434	490.0
1401	4.93330e+02	1.40100e+03	0.0303206	490.5
1402	4.93800e+02	1.40200e+03	0.0302954	491.0
1403	4.94317e+02	1.40300e+03	0.0302696	491.5
1404	4.94798e+02	1.40400e+03	0.030245	492.0
1405	4.95300e+02	1.40500e+03	0.0302221	492.5
1406	4.95807e+02	1.40600e+03	0.0302013	493.0
1407	4.96303e+02	1.40700e+03	0.0301813	493.5
1408	4.96775e+02	1.40800e+03	0.0301624	494.0
1409	4.97282e+02	1.40900e+03	0.030143	494.5
1410	4.97765e+02	1.41000e+03	0.030125	495.0
1411	4.98256e+02	1.41100e+03	0.0301089	495.5
1412	4.98754e+02	1.41200e+03	0.0301007	496.0
1413	4.99256e+02	1.41300e+03	0.0300956	496.5
1414	4.99773e+02	1.41400e+03	0.0300935	497.0
1415	5.00265e+02	1.41500e+03	0.0300924	497.5
1416	5.00855e+02	1.41600e+03	0.0301013	498.0
1417	5.01361e+02	1.41700e+03	0.0301027	498.5
1418	5.01974e+02	1.41800e+03	0.0301018	499.0
1419	5.02694e+02	1.41900e+03	0.0301009	499.5
1420	5.03158e+02	1.42000e+03	0.0300997	500.0
1421	5.03615e+02	1.42100e+03	0.0301027	500.5
1422	5.04096e+02	1.42200e+03	0.0301083	501.0
1423	5.04538e+02	1.42300e+03	0.0301151	501.5
1424	5.05017e+02	1.42400e+03	0.0301253	502.0
1425	5.05488e+02	1.42500e+03	0.0301282	502.5
1426	5.05976e+02	1.42600e+03	0.0301245	503.0
1427	5.06458e+02	1.42700e+03	0.030116	503.5
1428	5.06955e+02	1.42800e+03	0.0300942	504.0
1429	5.07395e+02	1.42900e+03	0.0300768	504.5
1430	5.07876e+02	1.43000e+03	0.0300625	505.0
1431	5.08348e+02	1.43100e+03	0.0300509	505.5
1432	5.08858e+02	1.43200e+03	0.0300392	506.0
1433	5.09342e+02	1.43300e+03	0.0300335	506.5
1434	5.09832e+02	1.43400e+03	0.0300297	507.0
1435	5.10326e+02	1.43500e+03	0.0300267	507.5
1436	5.10810e+02	1.43600e+03	0.0300416	508.0
1437	5.11282e+02	1.43700e+03	0.0300528	508.5
1438	5.11762e+02	1.43800e+03	0.0300685	509.0
1439	5.12226e+02	1.43900e+03	0.0300882	509.5
1440	5.12701e+02	1.44000e+03	0.0301179	510.0
1441	5.13145e+02	1.44100e+03	0.0301439	510.5
1442	5.13632e+02	1.44200e+03	0.030166	511.0
1443	5.14128e+02	1.44300e+03	0.0301844	511.5
1444	5.14637e+02	1.44400e+03	0.0301962	512.0
1445	5.15133e+02	1.44500e+03	0.0301994	512.5
1446	5.15634e+02	1.44600e+03	0.0301966	513.0
1447	5.16104e+02	1.44700e+03	0.0301904	513.5
1448	5.16597e+02	1.44800e+03	0.0301557	514.0
1449	5.17097e+02	1.44900e+03	0.030132	514.5
1450	5.17570e+02	1.45000e+03	0.0301077	515.0
1451	5.18038e+02	1.45100e+03	0.0300807	515.5
1452	5.18536e+02	1.45200e+03	0.0300457	516.0
1453	5.19027e+02	1.45300e+03	0.0300135	516.5
1454	5.19512e+02	1.45400e+03	0.0299827	517.0
1455	5.19982e+02	1.45500e+03	0.029953	517.5
1456	5.20448e+02	1.45600e+03	0.0299253	518.0
1457	5.20921e+02	1.45700e+03	0.0299006	518.5
1458	5.21401e+02	1.45800e+03	0.0298761	519.0
1459	5.21898e+02	1.45900e+03	0.0298505	519.5
1460	5.22400e+02	1.46000e+03	0.0298261	520.0
1461	5.22892e+02	1.46100e+03	0.0297968	520.5
1462	5.23404e+02	1.46200e+03	0.0297677	521.0
1463	5.23900e+02	1.46300e+03	0.0297402	521.5
1464	5.24395e+02	1.46400e+03	0.0297121	522.0
1465	5.24898e+02	1.46500e+03	0.029694	522.5
1466	5.25397e+02	1.46600e+03	0.0296811	523.0
1467	5.25882e+02	1.46700e+03	0.0296702	523.5
1468	5.26374e+02	1.46800e+03	0.0296781	524.0
1469	5.26850e+02	1.46900e+03	0.0296792	524.5
1470	5.27345e+02	1.47000e+03	0.0296819	525.0
1471	5.27836e+02	1.47100e+03	0.0296868	525.5
1472	5.28305e+02	1.47200e+03	0.0296997	526.0
1473	5.28792e+02	1.47300e+03	0.0297117	526.5
1474	5.29275e+02	1.47400e+03	0.0297235	527.0
1475	5.29754e+02	1.47500e+03	0.0297348	527.5
1476	5.30230e+02	1.47600e+03	0.0297516	528.0
1477	5.30722e+02	1.47700e+03	0.0297659	528.5
1478	5.31211e+02	1.47800e+03	0.0297819	529.0
1479	5.31688e+02	1.47900e+03	0.0297995	529.5
1480	5.32188e+02	1.48000e+03	0.0298182	530.0
1481	5.32685e+02	1.48100e+03	0.0298371	530.5
1482	5.33163e+02	1.48200e+03	0.0298533	531.0
1483	5.33660e+02	1.48300e+03	0.0298668	531.5
1484	5.34166e+02	1.48400e+03	0.0298676	532.0
1485	5.34650e+02	1.48500e+03	0.0298578	532.5
1486	5.35138e+02	1.48600e+03	0.0298382	533.0
1487	5.35624e+02	1.48700e+03	0.0298126	533.5
1488	5.36133e+02	1.48800e+03	0.0297537	534.0
1489	5.36641e+02	1.48900e+03	0.0297101	534.5
1490	5.37115e+02	1.49000e+03	0.0296692	535.0
1491	5.37602e+02	1.49100e+03	0.0296287	535.5
1492	5.38074e+02	1.49200e+03	0.0295873	536.0
1493	5.38544e+02	1.49300e+03	0.0295495	536.5
1494	5.39029e+02	1.49400e+03	0.0295148	537.0
1495	5.39521e+02	1.49500e+03	0.0294831	537.5
1496	5.40016e+02	1.49600e+03	0.0294698	538.0
1497	5.40487e+02	1.49700e+03	0.0294596	538.5
1498	5.40957e+02	1.49800e+03	0.029457	539.0
1499	5.41444e+02	1.49900e+03	0.0294593	539.5
1500	5.41929e+02	1.50000e+03	0.0294854	540.0
1501	5.42407e+02	1.50100e+03	0.0294996	540.5
1502	5.42880e+02	1.50200e+03	0.0295101	541.0
1503	5.43348e+02	1.50300e+03	0.0295196	541.5
1504	5.43830e+02	1.50400e+03	0.0295301	542.0
1505	5.44323e+02	1.50500e+03	0.0295391	542.5
1506	5.44819e+02	1.50600e+03	0.0295483	543.0
1507	5.45297e+02	1.50700e+03	0.0295574	543.5
1508	5.45771e+02	1.50800e+03	0.0295586	544.0
1509	5.46286e+02	1.50900e+03	0.0295606	544.5
1510	5.46805e+02	1.51000e+03	0.0295607	545.0
1511	5.47288e+02	1.51100e+03	0.0295598	545.5
1512	5.47733e+02	1.51200e+03	0.0295575	546.0
1513	5.48220e+02	1.51300e+03	0.0295594	546.5
1514	5.48730e+02	1.51400e+03	0.0295652	547.0
1515	5.49236e+02	1.51500e+03	0.0295734	547.5
1516	5.49806e+02	1.51600e+03	0.0295851	548.0
1517	5.50289e+02	1.51700e+03	0.0295911	548.5
1518	5.50824e+02	1.51800e+03	0.0295915	549.0
1519	5.51327e+02	1.51900e+03	0.0295881	549.5
1520	5.51815e+02	1.52000e+03	0.0295778	550.0
1521	5.52344e+02	1.52100e+03	0.0295704	550.5
1522	5.52900e+02	1.52200e+03	0.0295649	551.0
1523	5.53437e+02	1.52300e+03	0.0295603	551.5
1524	5.53850e+02	1.52400e+03	0.0295523	552.0
1525	5.54313e+02	1.52500e+03	0.0295466	552.5
1526	5.54826e+02	1.52600e+03	0.0295383	553.0
1527	5.55305e+02	1.52700e+03	0.0295271	553.5
1528	5.55740e+02	1.52800e+03	0.0295189	554.0
1529	5.56202e+02	1.52900e+03	0.0295118	554.5
1530	5.56666e+02	1.53000e+03	0.0295098	555.0
1531	5.57151e+02	1.53100e+03	0.0295117	555.5
1532	5.57611e+02	1.53200e+03	0.0295208	556.0
1533	5.58054e+02	1.53300e+03	0.0295294	556.5
1534	5.58518e+02	1.53400e+03	0.0295332	557.0
1535	5.58975e+02	1.53500e+03	0.0295318	557.5
1536	5.59445e+02	1.53600e+03	0.0295164	558.0
1537	5.59902e+02	1.53700e+03	0.0294874	558.5
1538	5.60378e+02	1.53800e+03	0.0294526	559.0
1539	5.60850e+02	1.53900e+03	0.0294167	559.5
1540	5.61319e+02	1.54000e+03	0.0293517	560.0
1541	5.61798e+02	1.54100e+03	0.0293128	560.5
1542	5.62281e+02	1.54200e+03	0.0292828	561.0
1543	5.62757e+02	1.54300e+03	0.029256	561.5
1544	5.63237e+02	1.54400e+03	0.029256	562.0
1545	5.63729e+02	1.54500e+03	0.0292451	562.5
1546	5.64202e+02	1.54600e+03	0.0292337	563.0
1547	5.64694e+02	1.54700e+03	0.0292232	563.5
1548	5.65183e+02	1.54800e+03	0.0292173	564.0
1549	5.65670e+02	1.54900e+03	0.0292078	564.5
1550	5.66152e+02	1.55000e+03	0.029195	565.0
1551	5.66640e+02	1.55100e+03	0.0291799	565.5
1552	5.67115e+02	1.55200e+03	0.029157	566.0
1553	5.67610e+02	1.55300e+03	0.0291344	566.5
1554	5.68100e+02	1.55400e+03	0.0291126	567.0
1555	5.68595e+02	1.55500e+03	0.029092	567.5
1556	5.69099e+02	1.55600e+03	0.0290709	568.0
1557	5.69588e+02	1.55700e+03	0.0290556	568.5
1558	5.70068e+02	1.55800e+03	0.0290403	569.0
1559	5.70566e+02	1.55900e+03	0.0290236	569.5
1560	5.71064e+02	1.56000e+03	0.0290077	570.0
1561	5.71544e+02	1.56100e+03	0.0289807	570.5
1562	5.72038e+02	1.56200e+03	0.0289511	571.0
1563	5.72529e+02	1.56300e+03	0.0289218	571.5
1564	5.73030e+02	1.56400e+03	0.0288827	572.0
1565	5.73524e+02	1.56500e+03	0.0288586	572.5
1566	5.74016e+02	1.56600e+03	0.0288419	573.0
1567	5.74507e+02	1.56700e+03	0.0288285	573.5
1568	5.74998e+02	1.56800e+03	0.0288339	574.0
1569	5.75484e+02	1.56900e+03	0.0288274	574.5
1570	5.75976e+02	1.57000e+03	0.0288168	575.0
1571	5.76488e+02	1.57100e+03	0.0288053	575.5
1572	5.76987e+02	1.57200e+03	0.0287947	576.0
1573	5.77475e+02	1.57300e+03	0.028788	576.5
1574	5.77968e+02	1.57400e+03	0.0287854	577.0
1575	5.78463e+02	1.57500e+03	0.0287854	577.5
1576	5.78963e+02	1.57600e+03	0.0287909	578.0
1577	5.79464e+02	1.57700e+03	0.0287929	578.5
1578	5.79962e+02	1.57800e+03	0.0287925	579.0
1579	5.80447e+02	1.57900e+03	0.0287905	579.5
1580	5.80929e+02	1.58000e+03	0.0287857	580.0
1581	5.81431e+02	1.58100e+03	0.0287768	580.5
1582	5.81917e+02	1.58200e+03	0.0287651	581.0
1583	5.82412e+02	1.58300e+03	0.0287516	581.5
1584	5.82901e+02	1.58400e+03	0.0287246	582.0
1585	5.83380e+02	1.58500e+03	0.0287021	582.5
1586	5.83849e+02	1.58600e+03	0.0286807	583.0
1587	5.84343e+02	1.58700e+03	0.0286606	583.5
1588	5.84827e+02	1.58800e+03	0.0286458	584.0
1589	5.85326e+02	1.58900e+03	0.0286388	584.5
1590	5.85826e+02	1.59000e+03	0.0286384	585.0
1591	5.86322e+02	1.59100e+03	0.0286417	585.5
1592	5.86845e+02	1.59200e+03	0.0286611	586.0
1593	5.87361e+02	1.59300e+03	0.028667	586.5
1594	5.87882e+02	1.59400e+03	0.0286634	587.0
1595	5.88377e+02	1.59500e+03	0.0286541	587.5
1596	5.88829e+02	1.59600e+03	0.0286355	588.0
1597	5.89315e+02	1.59700e+03	0.0286215	588.5
1598	5.89815e+02	1.59800e+03	0.0286103	589.0
1599	5.90293e+02	1.59900e+03	0.0286008	589.5
1600	5.90774e+02	1.60000e+03	0.028587	590.0
1601	5.91277e+02	1.60100e+03	0.028575	590.5
1602	5.91770e+02	1.60200e+03	0.0285597	591.0
1603	5.92272e+02	1.60300e+03	0.0285406	591.5
1604	5.92762e+02	1.60400e+03	0.0285222	592.0
1605	5.93254e+02	1.60500e+03	0.028505	592.5
1606	5.93758e+02	1.60600e+03	0.0284927	593.0
1607	5.94254e+02	1.60700e+03	0.0284844	593.5
1608	5.94721e+02	1.60800e+03	0.0284825	594.0
1609	5.95206e+02	1.60900e+03	0.0284871	594.5
1610	5.95686e+02	1.61000e+03	0.0284953	595.0
1611	5.96155e+02	1.61100e+03	0.0285046	595.5
1612	5.96640e+02	1.61200e+03	0.0285324	596.0
1613	5.97135e+02	1.61300e+03	0.0285496	596.5
1614	5.97618e+02	1.61400e+03	0.0285666	597.0
1615	5.98102e+02	1.61500e+03	0.0285851	597.5
1616	5.98597e+02	1.61600e+03	0.0286029	598.0
1617	5.99094e+02	1.61700e+03	0.0286233	598.5
1618	5.99586e+02	1.61800e+03	0.028643	599.0
1619	6.00073e+02	1.61900e+03	0.0286605	599.5
1620	6.00575e+02	1.62000e+03	0.0286811	600.0
1621	6.01062e+02	1.62100e+03	0.0287004	600.5
1622	6.01548e+02	1.62200e+03	0.0287209	601.0
1623	6.02034e+02	1.62300e+03	0.0287427	601.5
1624	6.02521e+02	1.62400e+03	0.0287575	602.0
1625	6.03006e+02	1.62500e+03	0.0287704	602.5
1626	6.03508e+02	1.62600e+03	0.0287767	603.0
1627	6.04028e+02	1.62700e+03	0.028777	603.5
1628	6.04531e+02	1.62800e+03	0.0287535	604.0
1629	6.05036e+02	1.62900e+03	0.0287272	604.5
1630	6.05537e+02	1.63000e+03	0.0286958	605.0
1631	6.06038e+02	1.63100e+03	0.0286614	605.5
1632	6.06543e+02	1.63200e+03	0.0286024	606.0
1633	6.07030e+02	1.63300e+03	0.0285596	606.5
1634	6.07538e+02	1.63400e+03	0.0285174	607.0
1635	6.08021e+02	1.63500e+03	0.0284729	607.5
1636	6.08510e+02	1.63600e+03	0.0284272	608.0
1637	6.09018e+02	1.63700e+03	0.0283754	608.5
1638	6.09516e+02	1.63800e+03	0.0283241	609.0
1639	6.10025e+02	1.63900e+03	0.0282752	609.5
1640	6.10518e+02	1.64000e+03	0.0282306	610.0
1641	6.11030e+02	1.64100e+03	0.0282032	610.5
1642	6.11521e+02	1.64200e+03	0.0281875	611.0
1643	6.12020e+02	1.64300e+03	0.0281781	611.5
1644	6.12543e+02	1.64400e+03	0.028213	612.0
1645	6.13072e+02	1.64500e+03	0.0282345	612.5
1646	6.13660e+02	1.64600e+03	0.0282587	613.0
1647	6.14645e+02	1.64700e+03	0.0282869	613.5
1648	6.14867e+02	1.64800e+03	0.0283386	614.0
1649	6.15203e+02	1.64900e+03	0.028385	614.5
1650	6.15609e+02	1.65000e+03	0.0284316	615.0
1651	6.16045e+02	1.65100e+03	0.0284781	615.5
1652	6.16503e+02	1.65200e+03	0.0285213	616.0
1653	6.16947e+02	1.65300e+03	0.0285491	616.5
1654	6.17427e+02	1.65400e+03	0.0285663	617.0
1655	6.17905e+02	1.65500e+03	0.0285789	617.5
1656	6.18388e+02	1.65600e+03	0.0285539	618.0
1657	6.18859e+02	1.65700e+03	0.0285373	618.5
1658	6.19337e+02	1.65800e+03	0.0285174	619.0
1659	6.19834e+02	1.65900e+03	0.0284931	619.5
1660	6.20317e+02	1.66000e+03	0.0284365	620.0
1661	6.20809e+02	1.66100e+03	0.0283812	620.5
1662	6.21304e+02	1.66200e+03	0.028321	621.0
1663	6.21790e+02	1.66300e+03	0.0282584	621.5
1664	6.22281e+02	1.66400e+03	0.0281905	622.0
1665	6.22777e+02	1.66500e+03	0.0281468	622.5
1666	6.23267e+02	1.66600e+03	0.0281198	623.0
1667	6.23750e+02	1.66700e+03	0.0281021	623.5
1668	6.24243e+02	1.66800e+03	0.0281313	624.0
1669	6.24736e+02	1.66900e+03	0.0281447	624.5
1670	6.25228e+02	1.67000e+03	0.0281542	625.0
1671	6.25721e+02	1.67100e+03	0.0281624	625.5
1672	6.26216e+02	1.67200e+03	0.0281746	626.0
1673	6.26710e+02	1.67300e+03	0.0281715	626.5
1674	6.27201e+02	1.67400e+03	0.0281632	627.0
1675	6.27689e+02	1.67500e+03	0.0281533	627.5
1676	6.28182e+02	1.67600e+03	0.0281193	628.0
1677	6.28667e+02	1.67700e+03	0.0281017	628.5
1678	6.29158e+02	1.67800e+03	0.0280883	629.0
1679	6.29663e+02	1.67900e+03	0.0280764	629.5
1680	6.30154e+02	1.68000e+03	0.0280834	630.0
1681	6.30640e+02	1.68100e+03	0.0280895	630.5
1682	6.31138e+02	1.68200e+03	0.0280992	631.0
1683	6.31624e+02	1.68300e+03	0.0281114	631.5
1684	6.32119e+02	1.68400e+03	0.028136	632.0
1685	6.32606e+02	1.68500e+03	0.0281514	632.5
1686	6.33097e+02	1.68600e+03	0.0281616	633.0
1687	6.33595e+02	1.68700e+03	0.0281686	633.5
1688	6.34092e+02	1.68800e+03	0.0281719	634.0
1689	6.34574e+02	1.68900e+03	0.0281795	634.5
1690	6.35065e+02	1.69000e+03	0.0281897	635.0
1691	6.35563e+02	1.69100e+03	0.028201	635.5
1692	6.36056e+02	1.69200e+03	0.0282105	636.0
1693	6.36546e+02	1.69300e+03	0.0282175	636.5
1694	6.37036e+02	1.69400e+03	0.0282192	637.0
1695	6.37529e+02	1.69500e+03	0.0282162	637.5
1696	6.38021e+02	1.69600e+03	0.0281949	638.0
1697	6.38525e+02	1.69700e+03	0.0281703	638.5
1698	6.39016e+02	1.69800e+03	0.0281418	639.0
1699	6.39508e+02	1.69900e+03	0.0281109	639.5
1700	6.39988e+02	1.70000e+03	0.0280603	640.0
1701	6.40478e+02	1.70100e+03	0.0280229	640.5
1702	6.40975e+02	1.70200e+03	0.0279862	641.0
1703	6.41475e+02	1.70300e+03	0.0279472	641.5
1704	6.41965e+02	1.70400e+03	0.0279103	642.0
1705	6.42459e+02	1.70500e+03	0.0278709	642.5
1706	6.42949e+02	1.70600e+03	0.0278338	643.0
1707	6.43434e+02	1.70700e+03	0.0277992	643.5
1708	6.43937e+02	1.70800e+03	0.0277661	644.0
1709	6.44428e+02	1.70900e+03	0.0277421	644.5
1710	6.44912e+02	1.71000e+03	0.0277244	645.0
1711	6.45409e+02	1.71100e+03	0.0277099	645.5
1712	6.45901e+02	1.71200e+03	0.0277195	646.0
1713	6.46400e+02	1.71300e+03	0.0277231	646.5
1714	6.46887e+02	1.71400e+03	0.0277296	647.0
1715	6.47390e+02	1.71500e+03	0.0277394	647.5
1716	6.47881e+02	1.71600e+03	0.0277658	648.0
1717	6.48374e+02	1.71700e+03	0.0277872	648.5
1718	6.48873e+02	1.71800e+03	0.0278058	649.0
1719	6.49367e+02	1.71900e+03	0.0278215	649.5
1720	6.49857e+02	1.72000e+03	0.0278302	650.0
1721	6.50332e+02	1.72100e+03	0.0278307	650.5
1722	6.50834e+02	1.72200e+03	0.0278281	651.0
1723	6.51332e+02	1.72300e+03	0.0278251	651.5
1724	6.51827e+02	1.72400e+03	0.0277996	652.0
1725	6.52318e+02	1.72500e+03	0.0277853	652.5
1726	6.52813e+02	1.72600e+03	0.0277706	653.0
1727	6.53311e+02	1.72700e+03	0.0277539	653.5
1728	6.53802e+02	1.72800e+03	0.027731	654.0
1729	6.54286e+02	1.72900e+03	0.0277039	654.5
1730	6.54779e+02	1.73000e+03	0.0276777	655.0
1731	6.55279e+02	1.73100e+03	0.0276535	655.5
1732	6.55769e+02	1.73200e+03	0.0276246	656.0
1733	6.56263e+02	1.73300e+03	0.0276043	656.5
1734	6.56757e+02	1.73400e+03	0.027585	657.0
1735	6.57254e+02	1.73500e+03	0.0275648	657.5
1736	6.57740e+02	1.73600e+03	0.0275458	658.0
1737	6.58234e+02	1.73700e+03	0.0275133	658.5
1738	6.58733e+02	1.73800e+03	0.0274733	659.0
1739	6.59223e+02	1.73900e+03	0.0274293	659.5
1740	6.59720e+02	1.74000e+03	0.0273594	660.0
1741	6.60217e+02	1.74100e+03	0.0273055	660.5
1742	6.60712e+02	1.74200e+03	0.027259	661.0
1743	6.61199e+02	1.74300e+03	0.0272159	661.5
1744	6.61683e+02	1.74400e+03	0.0271926	662.0
1745	6.62183e+02	1.74500e+03	0.0271769	662.5
1746	6.62679e+02	1.74600e+03	0.0271717	663.0
1747	6.63166e+02	1.74700e+03	0.0271743	663.5
1748	6.63667e+02	1.74800e+03	0.0272288	664.0
1749	6.64173e+02	1.74900e+03	0.027275	664.5
1750	6.64665e+02	1.75000e+03	0.0273258	665.0
1751	6.65149e+02	1.75100e+03	0.0273796	665.5
1752	6.65645e+02	1.75200e+03	0.027451	666.0
1753	6.66138e+02	1.75300e+03	0.0274971	666.5
1754	6.66633e+02	1.75400e+03	0.0275266	667.0
1755	6.67121e+02	1.75500e+03	0.0275468	667.5
1756	6.67630e+02	1.75600e+03	0.0275298	668.0
1757	6.68118e+02	1.75700e+03	0.0275288	668.5
1758	6.68601e+02	1.75800e+03	0.0275331	669.0
1759	6.69093e+02	1.75900e+03	0.0275396	669.5
1760	6.69592e+02	1.76000e+03	0.0275393	670.0
1761	6.70096e+02	1.76100e+03	0.0275457	670.5
1762	6.70582e+02	1.76200e+03	0.0275501	671.0
1763	6.71076e+02	1.76300e+03	0.0275518	671.5
1764	6.71576e+02	1.76400e+03	0.027559	672.0
1765	6.72065e+02	1.76500e+03	0.0275592	672.5
1766	6.72562e+02	1.76600e+03	0.0275589	673.0
1767	6.73054e+02	1.76700e+03	0.0275593	673.5
1768	6.73550e+02	1.76800e+03	0.0275519	674.0
1769	6.74050e+02	1.76900e+03	0.0275515	674.5
1770	6.74543e+02	1.77000e+03	0.0275514	675.0
1771	6.75041e+02	1.77100e+03	0.0275497	675.5
1772	6.75526e+02	1.77200e+03	0.0275544	676.0
1773	6.76029e+02	1.77300e+03	0.0275578	676.5
1774	6.76532e+02	1.77400e+03	0.0275649	677.0
1775	6.77020e+02	1.77500e+03	0.0275751	677.5
1776	6.77502e+02	1.77600e+03	0.0275859	678.0
1777	6.78007e+02	1.77700e+03	0.0275969	678.5
1778	6.78504e+02	1.77800e+03	0.0276056	679.0
1779	6.78999e+02	1.77900e+03	0.0276116	679.5
1780	6.79490e+02	1.78000e+03	0.0276121	680.0
1781	6.79988e+02	1.78100e+03	0.0276074	680.5
1782	6.80484e+02	1.78200e+03	0.0276011	681.0
1783	6.80976e+02	1.78300e+03	0.0275949	681.5
1784	6.81470e+02	1.78400e+03	0.0275808	682.0
1785	6.81974e+02	1.78500e+03	0.0275787	682.5
1786	6.82469e+02	1.78600e+03	0.0275796	683.0
1787	6.82964e+02	1.78700e+03	0.0275803	683.5
1788	6.83460e+02	1.78800e+03	0.0275904	684.0
1789	6.83945e+02	1.78900e+03	0.0275893	684.5
1790	6.84447e+02	1.79000e+03	0.0275847	685.0
1791	6.84935e+02	1.79100e+03	0.0275801	685.5
1792	6.85442e+02	1.79200e+03	0.0275677	686.0
1793	6.85935e+02	1.79300e+03	0.0275633	686.5
1794	6.86394e+02	1.79400e+03	0.0275628	687.0
1795	6.86569e+02	1.79500e+03	0.0275645	687.5
1796	6.86753e+02	1.79600e+03	0.027582	688.0
1797	6.87051e+02	1.79700e+03	0.027601	688.5
1798	6.87413e+02	1.79800e+03	0.0276239	689.0
1799	6.87782e+02	1.79900e+03	0.0276485	689.5
1800	6.88143e+02	1.80000e+03	0.0276904	690.0
1801	6.88482e+02	1.80100e+03	0.0277181	690.5
1802	6.88819e+02	1.80200e+03	0.0277329	691.0
1803	6.89139e+02	1.80300e+03	0.0277388	691.5
1804	6.89459e+02	1.80400e+03	0.0277244	692.0
1805	6.89764e+02	1.80500e+03	0.0277038	692.5
1806	6.90057e+02	1.80600e+03	0.0276718	693.0
1807	6.90336e+02	1.80700e+03	0.0276318	693.5
1808	6.90610e+02	1.80800e+03	0.0275523	694.0
1809	6.90883e+02	1.80900e+03	0.0274908	694.5
1810	6.91141e+02	1.81000e+03	0.0274357	695.0
1811	6.91372e+02	1.81100e+03	0.0273845	695.5
1812	6.91623e+02	1.81200e+03	0.0273476	696.0
1813	6.91856e+02	1.81300e+03	0.0273256	696.5
1814	6.92081e+02	1.81400e+03	0.0273164	697.0
1815	6.92313e+02	1.81500e+03	0.0273142	697.5
1816	6.92523e+02	1.81600e+03	0.0273549	698.0
1817	6.92730e+02	1.81700e+03	0.027377	698.5
1818	6.92932e+02	1.81800e+03	0.0273986	699.0
1819	6.93133e+02	1.81900e+03	0.027422	699.5
1820	6.93321e+02	1.82000e+03	0.0274568	700.0
1821	6.93506e+02	1.82100e+03	0.0274924	700.0
1822	6.93682e+02	1.82200e+03	0.0275285	700.0
1823	6.93861e+02	1.82300e+03	0.0275645	700.0
1824	6.94028e+02	1.82400e+03	0.0276009	700.0
1825	6.94197e+02	1.82500e+03	0.0276263	700.0
1826	6.94356e+02	1.82600e+03	0.0276437	700.0
1827	6.94511e+02	1.82700e+03	0.0276572	700.0
1828	6.94646e+02	1.82800e+03	0.0276453	700.0
1829	6.94798e+02	1.82900e+03	0.0276389	700.0
1830	6.94939e+02	1.83000e+03	0.0276308	700.0
1831	6.95073e+02	1.83100e+03	0.02762	700.0
1832	6.95208e+02	1.83200e+03	0.0275875	700.0
1833	6.95330e+02	1.83300e+03	0.027559	700.0
1834	6.95461e+02	1.83400e+03	0.0275293	700.0
1835	6.95573e+02	1.83500e+03	0.0274982	700.0
1836	6.95693e+02	1.83600e+03	0.0274592	700.0
1837	6.95815e+02	1.83700e+03	0.0274276	700.0
1838	6.95919e+02	1.83800e+03	0.0273994	700.0
1839	6.96020e+02	1.83900e+03	0.0273729	700.0
1840	6.96134e+02	1.84000e+03	0.0273521	700.0
1841	6.96231e+02	1.84100e+03	0.0273292	700.0
1842	6.96336e+02	1.84200e+03	0.0273082	700.0
1843	6.96433e+02	1.84300e+03	0.02729	700.0
1844	6.96527e+02	1.84400e+03	0.0272859	700.0
1845	6.96612e+02	1.84500e+03	0.0272864	700.0
1846	6.96691e+02	1.84600e+03	0.0272945	700.0
1847	6.96790e+02	1.84700e+03	0.0273097	700.0
1848	6.96871e+02	1.84800e+03	0.0273555	700.0
1849	6.96938e+02	1.84900e+03	0.0273893	700.0
1850	6.97022e+02	1.85000e+03	0.0274169	700.0
1851	6.97105e+02	1.85100e+03	0.0274408	700.0
1852	6.97169e+02	1.85200e+03	0.0274604	700.0
1853	6.97255e+02	1.85300e+03	0.0274691	700.0
1854	6.97323e+02	1.85400e+03	0.0274728	700.0
1855	6.97398e+02	1.85500e+03	0.0274741	700.0
1856	6.97469e+02	1.85600e+03	0.0274494	700.0
1857	6.97532e+02	1.85700e+03	0.0274405	700.0
1858	6.97598e+02	1.85800e+03	0.0274358	700.0
1859	6.97653e+02	1.85900e+03	0.0274324	700.0
1860	6.97715e+02	1.86000e+03	0.0274383	700.0
1861	6.97779e+02	1.86100e+03	0.027442	700.0
1862	6.97845e+02	1.86200e+03	0.027446	700.0
1863	6.97896e+02	1.86300e+03	0.0274502	700.0
1864	6.97962e+02	1.86400e+03	0.0274575	700.0
1865	6.98014e+02	1.86500e+03	0.02746	700.0
1866	6.98068e+02	1.86600e+03	0.0274571	700.0
1867	6.98119e+02	1.86700e+03	0.0274502	700.0
1868	6.98168e+02	1.86800e+03	0.0274322	700.0
1869	6.98224e+02	1.86900e+03	0.0274168	700.0
1870	6.98270e+02	1.87000e+03	0.0274013	700.0
1871	6.98316e+02	1.87100e+03	0.0273853	700.0
1872	6.98352e+02	1.87200e+03	0.0273617	700.0
1873	6.98401e+02	1.87300e+03	0.0273409	700.0
1874	6.98448e+02	1.87400e+03	0.0273178	700.0
1875	6.98481e+02	1.87500e+03	0.0272925	700.0
1876	6.98525e+02	1.87600e+03	0.0272654	700.0
1877	6.98563e+02	1.87700e+03	0.0272405	700.0
1878	6.98605e+02	1.87800e+03	0.0272199	700.0
1879	6.98650e+02	1.87900e+03	0.0272027	700.0
1880	6.98682e+02	1.88000e+03	0.0271969	700.0
1881	6.98719e+02	1.88100e+03	0.0272011	700.0
1882	6.98755e+02	1.88200e+03	0.0272141	700.0
1883	6.98784e+02	1.88300e+03	0.027231	700.0
1884	6.98839e+02	1.88400e+03	0.0272736	700.0
1885	6.98849e+02	1.88500e+03	0.0272993	700.0
1886	6.98894e+02	1.88600e+03	0.0273168	700.0
1887	6.98932e+02	1.88700e+03	0.0273303	700.0
1888	6.98956e+02	1.88800e+03	0.0273329	700.0
1889	6.98985e+02	1.88900e+03	0.0273364	700.0
1890	6.99021e+02	1.89000e+03	0.0273384	700.0
1891	6.99046e+02	1.89100e+03	0.0273393	700.0
1892	6.99075e+02	1.89200e+03	0.0273291	700.0
1893	6.99111e+02	1.89300e+03	0.0273253	700.0
1894	6.99125e+02	1.89400e+03	0.027323	700.0
1895	6.99147e+02	1.89500e+03	0.0273208	700.0
1896	6.99176e+02	1.89600e+03	0.0273213	700.0
1897	6.99209e+02	1.89700e+03	0.0273207	700.0
1898	6.99229e+02	1.89800e+03	0.0273202	700.0
1899	6.99263e+02	1.89900e+03	0.0273198	700.0
1900	6.99269e+02	1.90000e+03	0.0273189	700.0
1901	6.99300e+02	1.90100e+03	0.0273139	700.0
1902	6.99324e+02	1.90200e+03	0.0273048	700.0
1903	6.99341e+02	1.90300e+03	0.0272943	700.0
1904	6.99375e+02	1.90400e+03	0.0272835	700.0
1905	6.99384e+02	1.90500e+03	0.0272796	700.0
1906	6.99401e+02	1.90600e+03	0.0272794	700.0
1907	6.99430e+02	1.90700e+03	0.0272804	700.0
1908	6.99442e+02	1.90800e+03	0.0272896	700.0
1909	6.99467e+02	1.90900e+03	0.0272951	700.0
1910	6.99481e+02	1.91000e+03	0.0272998	700.0
1911	6.99508e+02	1.91100e+03	0.0273044	700.0
1912	6.99524e+02	1.91200e+03	0.0273093	700.0
1913	6.99538e+02	1.91300e+03	0.0273144	700.0
1914	6.99560e+02	1.91400e+03	0.0273219	700.0
1915	6.99574e+02	1.91500e+03	0.0273307	700.0
1916	6.99588e+02	1.91600e+03	0.0273354	700.0
1917	6.99604e+02	1.91700e+03	0.0273378	700.0
1918	6.99630e+02	1.91800e+03	0.0273375	700.0
1919	6.99649e+02	1.91900e+03	0.0273351	700.0
1920	6.99657e+02	1.92000e+03	0.0273238	700.0
1921	6.99678e+02	1.92100e+03	0.0273136	700.0
1922	6.99684e+02	1.92200e+03	0.0273025	700.0
1923	6.99709e+02	1.92300e+03	0.0272907	700.0
1924	6.99716e+02	1.92400e+03	0.0272742	700.0
1925	6.99736e+02	1.92500e+03	0.0272621	700.0
1926	6.99737e+02	1.92600e+03	0.0272498	700.0
1927	6.99751e+02	1.92700e+03	0.0272359	700.0
1928	6.99768e+02	1.92800e+03	0.0272251	700.0
1929	6.99785e+02	1.92900e+03	0.0272145	700.0
1930	6.99792e+02	1.93000e+03	0.0272053	700.0
1931	6.99814e+02	1.93100e+03	0.0271973	700.0
1932	6.99816e+02	1.93200e+03	0.0271909	700.0
1933	6.99832e+02	1.93300e+03	0.0271852	700.0
1934	6.99857e+02	1.93400e+03	0.0271801	700.0
1935	6.99859e+02	1.93500e+03	0.0271752	700.0
1936	6.99862e+02	1.93600e+03	0.0271725	700.0
1937	6.99871e+02	1.93700e+03	0.0271672	700.0
1938	6.99885e+02	1.93800e+03	0.0271608	700.0
1939	6.99898e+02	1.93900e+03	0.027154	700.0
1940	6.99903e+02	1.94000e+03	0.0271433	700.0
1941	6.99917e+02	1.94100e+03	0.0271336	700.0
1942	6.99922e+02	1.94200e+03	0.0271236	700.0
1943	6.99940e+02	1.94300e+03	0.0271133	700.0
1944	6.99948e+02	1.94400e+03	0.0271009	700.0
1945	6.99958e+02	1.94500e+03	0.0270898	700.0
1946	6.99963e+02	1.94600e+03	0.0270817	700.0
1947	6.99978e+02	1.94700e+03	0.0270769	700.0
1948	6.99986e+02	1.94800e+03	0.0270793	700.0
1949	6.99986e+02	1.94900e+03	0.0270821	700.0
1950	6.99992e+02	1.95000e+03	0.0270857	700.0
1951	6.99995e+02	1.95100e+03	0.0270898	700.0
1952	7.00012e+02	1.95200e+03	0.0271035	700.0
1953	7.00023e+02	1.95300e+03	0.0271116	700.0
1954	7.00022e+02	1.95400e+03	0.0271189	700.0
1955	7.00031e+02	1.95500e+03	0.0271263	700.0
1956	7.00032e+02	1.95600e+03	0.0271325	700.0
1957	7.00054e+02	1.95700e+03	0.0271407	700.0
1958	7.00058e+02	1.95800e+03	0.0271495	700.0
1959	7.00058e+02	1.95900e+03	0.0271586	700.0
1960	7.00073e+02	1.96000e+03	0.0271686	700.0
1961	7.00076e+02	1.96100e+03	0.0271764	700.0
1962	7.00084e+02	1.96200e+03	0.0271847	700.0
1963	7.00094e+02	1.96300e+03	0.0271945	700.0
1964	7.00099e+02	1.96400e+03	0.0271996	700.0
1965	7.00104e+02	1.96500e+03	0.0272024	700.0
1966	7.00107e+02	1.96600e+03	0.0272015	700.0
1967	7.00122e+02	1.96700e+03	0.0271979	700.0
1968	7.00121e+02	1.96800e+03	0.027177	700.0
1969	7.00135e+02	1.96900e+03	0.0271539	700.0
1970	7.00132e+02	1.97000e+03	0.027129	700.0
1971	7.00138e+02	1.97100e+03	0.027103	700.0
1972	7.00137e+02	1.97200e+03	0.027063	700.0
1973	7.00150e+02	1.97300e+03	0.0270388	700.0
1974	7.00159e+02	1.97400e+03	0.0270223	700.0
1975	7.00162e+02	1.97500e+03	0.0270083	700.0
1976	7.00158e+02	1.97600e+03	0.0270096	700.0
1977	7.00164e+02	1.97700e+03	0.0270045	700.0
1978	7.00170e+02	1.97800e+03	0.0269991	700.0
1979	7.00183e+02	1.97900e+03	0.0269942	700.0
1980	7.00186e+02	1.98000e+03	0.026993	700.0
1981	7.00181e+02	1.98100e+03	0.0269892	700.0
1982	7.00186e+02	1.98200e+03	0.0269837	700.0
1983	7.00199e+02	1.98300e+03	0.0269773	700.0
1984	7.00204e+02	1.98400e+03	0.0269621	700.0
1985	7.00206e+02	1.98500e+03	0.026942	700.0
1986	7.00215e+02	1.98600e+03	0.0269181	700.0
1987	7.00225e+02	1.98700e+03	0.0268927	700.0
1988	7.00229e+02	1.98800e+03	0.0268561	700.0
1989	7.00225e+02	1.98900e+03	0.0268284	700.0
1990	7.00231e+02	1.99000e+03	0.0268043	700.0
1991	7.00236e+02	1.99100e+03	0.0267818	700.0
1992	7.00246e+02	1.99200e+03	0.0267689	700.0
1993	7.00250e+02	1.99300e+03	0.0267553	700.0
1994	7.00252e+02	1.99400e+03	0.0267437	700.0
1995	7.00254e+02	1.99500e+03	0.0267335	700.0
1996	7.00249e+02	1.99600e+03	0.026733	700.0
1997	7.00271e+02	1.99700e+03	0.0267291	700.0
1998	7.00262e+02	1.99800e+03	0.0267256	700.0
1999	7.00267e+02	1.99900e+03	0.0267226	700.0
2000	7.00270e+02	2.00000e+03	0.0267229	700.0
2001	7.00275e+02	2.00100e+03	0.026722	700.0
2002	7.00280e+02	2.00200e+03	0.0267211	700.0
2003	7.00282e+02	2.00300e+03	0.0267204	700.0
2004	7.00283e+02	2.00400e+03	0.0267209	700.0
2005	7.00287e+02	2.00500e+03	0.0267233	700.0
2006	7.00295e+02	2.00600e+03	0.0267291	700.0
2007	7.00301e+02	2.00700e+03	0.0267367	700.0
2008	7.00296e+02	2.00800e+03	0.0267459	700.0
2009	7.00302e+02	2.00900e+03	0.0267524	700.0
2010	7.00306e+02	2.01000e+03	0.0267575	700.0
2011	7.00312e+02	2.01100e+03	0.0267619	700.0
2012	7.00314e+02	2.01200e+03	0.0267714	700.0
2013	7.00308e+02	2.01300e+03	0.0267842	700.0
2014	7.00323e+02	2.01400e+03	0.0267973	700.0
2015	7.00327e+02	2.01500e+03	0.0268102	700.0
2016	7.00336e+02	2.01600e+03	0.0268281	700.0
2017	7.00338e+02	2.01700e+03	0.0268401	700.0
2018	7.00336e+02	2.01800e+03	0.0268491	700.0
2019	7.00336e+02	2.01900e+03	0.0268564	700.0
2020	7.00334e+02	2.02000e+03	0.0268523	700.0
2021	7.00341e+02	2.02100e+03	0.026849	700.0
2022	7.00340e+02	2.02200e+03	0.0268429	700.0
2023	7.00336e+02	2.02300e+03	0.0268344	700.0
2024	7.00345e+02	2.02400e+03	0.0268134	700.0
2025	7.00352e+02	2.02500e+03	0.0267954	700.0
2026	7.00350e+02	2.02600e+03	0.0267769	700.0
2027	7.00352e+02	2.02700e+03	0.0267576	700.0
2028	7.00353e+02	2.02800e+03	0.0267334	700.0
2029	7.00355e+02	2.02900e+03	0.0267134	700.0
2030	7.00369e+02	2.03000e+03	0.0266951	700.0
2031	7.00366e+02	2.03100e+03	0.0266778	700.0
2032	7.00360e+02	2.03200e+03	0.0266665	700.0
2033	7.00370e+02	2.03300e+03	0.026655	700.0
2034	7.00378e+02	2.03400e+03	0.026645	700.0
2035	7.00380e+02	2.03500e+03	0.0266362	700.0
2036	7.00375e+02	2.03600e+03	0.0266342	700.0
2037	7.00379e+02	2.03700e+03	0.0266302	700.0
2038	7.00381e+02	2.03800e+03	0.0266264	700.0
2039	7.00387e+02	2.03900e+03	0.026623	700.0
2040	7.00391e+02	2.04000e+03	0.0266211	700.0
2041	7.00398e+02	2.04100e+03	0.0266172	700.0
2042	7.00390e+02	2.04200e+03	0.0266121	700.0
2043	7.00389e+02	2.04300e+03	0.0266065	700.0
2044	7.00396e+02	2.04400e+03	0.026597	700.0
2045	7.00395e+02	2.04500e+03	0.026588	700.0
2046	7.00398e+02	2.04600e+03	0.0265787	700.0
2047	7.00398e+02	2.04700e+03	0.026569	700.0
2048	7.00409e+02	2.04800e+03	0.0265565	700.0
2049	7.00407e+02	2.04900e+03	0.0265452	700.0
2050	7.00407e+02	2.05000e+03	0.0265338	700.0
2051	7.00413e+02	2.05100e+03	0.0265222	700.0
2052	7.00411e+02	2.05200e+03	0.0265098	700.0
2053	7.00419e+02	2.05300e+03	0.0264974	700.0
2054	7.00417e+02	2.05400e+03	0.0264853	700.0
2055	7.00423e+02	2.05500e+03	0.0264734	700.0
2056	7.00422e+02	2.05600e+03	0.0264635	700.0
2057	7.00430e+02	2.05700e+03	0.0264586	700.0
2058	7.00423e+02	2.05800e+03	0.0264589	700.0
2059	7.00429e+02	2.05900e+03	0.0264616	700.0
2060	7.00425e+02	2.06000e+03	0.0264737	700.0
2061	7.00425e+02	2.06100e+03	0.0264817	700.0
2062	7.00439e+02	2.06200e+03	0.0264887	700.0
2063	7.00438e+02	2.06300e+03	0.0264955	700.0
2064	7.00434e+02	2.06400e+03	0.0265021	700.0
2065	7.00442e+02	2.06500e+03	0.0265054	700.0
2066	7.00426e+02	2.06600e+03	0.0265063	700.0
2067	7.00440e+02	2.06700e+03	0.0265058	700.0
2068	7.00452e+02	2.06800e+03	0.0264971	700.0
2069	7.00449e+02	2.06900e+03	0.026494	700.0
2070	7.00458e+02	2.07000e+03	0.0264936	700.0
2071	7.00456e+02	2.07100e+03	0.0264932	700.0
2072	7.00440e+02	2.07200e+03	0.0264906	700.0
2073	7.00453e+02	2.07300e+03	0.0264892	700.0
2074	7.00456e+02	2.07400e+03	0.026489	700.0
2075	7.00451e+02	2.07500e+03	0.0264884	700.0
2076	7.00452e+02	2.07600e+03	0.0264795	700.0
2077	7.00451e+02	2.07700e+03	0.0264641	700.0
2078	7.00466e+02	2.07800e+03	0.0264433	700.0
2079	7.00460e+02	2.07900e+03	0.0264203	700.0
2080	7.00468e+02	2.08000e+03	0.0263852	700.0
2081	7.00467e+02	2.08100e+03	0.0263601	700.0
2082	7.00462e+02	2.08200e+03	0.0263399	700.0
2083	7.00465e+02	2.08300e+03	0.0263224	700.0
2084	7.00471e+02	2.08400e+03	0.0263179	700.0
2085	7.00469e+02	2.08500e+03	0.0263136	700.0
2086	7.00455e+02	2.08600e+03	0.0263118	700.0
2087	7.00468e+02	2.08700e+03	0.0263117	700.0
2088	7.00461e+02	2.08800e+03	0.0263236	700.0
2089	7.00469e+02	2.08900e+03	0.0263279	700.0
2090	7.00460e+02	2.09000e+03	0.0263304	700.0
2091	7.00469e+02	2.09100e+03	0.0263324	700.0
2092	7.00469e+02	2.09200e+03	0.0263282	700.0
2093	7.00471e+02	2.09300e+03	0.0263204	700.0
2094	7.00473e+02	2.09400e+03	0.0263063	700.0
2095	7.00474e+02	2.09500e+03	0.0262886	700.0
2096	7.00480e+02	2.09600e+03	0.0262593	700.0
2097	7.00478e+02	2.09700e+03	0.0262355	700.0
2098	7.00481e+02	2.09800e+03	0.0262138	700.0
2099	7.00472e+02	2.09900e+03	0.0261935	700.0
2100	7.00480e+02	2.10000e+03	0.0261807	700.0
2101	7.00480e+02	2.10100e+03	0.0261735	700.0
2102	7.00477e+02	2.10200e+03	0.0261673	700.0
2103	7.00476e+02	2.10300e+03	0.0261608	700.0
2104	7.00484e+02	2.10400e+03	0.0261632	700.0
2105	7.00486e+02	2.10500e+03	0.0261533	700.0
2106	7.00481e+02	2.10600e+03	0.026139	700.0
2107	7.00489e+02	2.10700e+03	0.0261229	700.0
2108	7.00488e+02	2.10800e+03	0.026094	700.0
2109	7.00483e+02	2.10900e+03	0.0260784	700.0
2110	7.00491e+02	2.11000e+03	0.02607	700.0
2111	7.00484e+02	2.11100e+03	0.0260641	700.0
2112	7.00491e+02	2.11200e+03	0.0260717	700.0
2113	7.00498e+02	2.11300e+03	0.0260757	700.0
2114	7.00490e+02	2.11400e+03	0.0260801	700.0
2115	7.00495e+02	2.11500e+03	0.026085	700.0
2116	7.00485e+02	2.11600e+03	0.0260963	700.0
2117	7.00489e+02	2.11700e+03	0.0261027	700.0
2118	7.00492e+02	2.11800e+03	0.0261069	700.0
2119	7.00490e+02	2.11900e+03	0.02611	700.0
2120	7.00493e+02	2.12000e+03	0.0261035	700.0
2121	7.00486e+02	2.12100e+03	0.0260935	700.0
2122	7.00491e+02	2.12200e+03	0.0260795	700.0
2123	7.00500e+02	2.12300e+03	0.0260641	700.0
2124	7.00491e+02	2.12400e+03	0.0260439	700.0
2125	7.00490e+02	2.12500e+03	0.0260329	700.0
2126	7.00493e+02	2.12600e+03	0.0260236	700.0
2127	7.00493e+02	2.12700e+03	0.026014	700.0
2128	7.00495e+02	2.12800e+03	0.0260104	700.0
2129	7.00496e+02	2.12900e+03	0.0260004	700.0
2130	7.00487e+02	2.13000e+03	0.0259892	700.0
2131	7.00492e+02	2.13100e+03	0.0259781	700.0
2132	7.00502e+02	2.13200e+03	0.0259657	700.0
2133	7.00503e+02	2.13300e+03	0.0259639	700.0
2134	7.00498e+02	2.13400e+03	0.0259697	700.0
2135	7.00496e+02	2.13500e+03	0.0259785	700.0
2136	7.00505e+02	2.13600e+03	0.026005	700.0
2137	7.00499e+02	2.13700e+03	0.026025	700.0
2138	7.00496e+02	2.13800e+03	0.0260463	700.0
2139	7.00503e+02	2.13900e+03	0.0260698	700.0
2140	7.00492e+02	2.14000e+03	0.0260956	700.0
2141	7.00502e+02	2.14100e+03	0.0261138	700.0
2142	7.00503e+02	2.14200e+03	0.0261265	700.0
2143	7.00511e+02	2.14300e+03	0.0261356	700.0
2144	7.00508e+02	2.14400e+03	0.0261264	700.0
2145	7.00495e+02	2.14500e+03	0.0261168	700.0
2146	7.00501e+02	2.14600e+03	0.026102	700.0
2147	7.00506e+02	2.14700e+03	0.0260834	700.0
2148	7.00496e+02	2.14800e+03	0.0260432	700.0
2149	7.00504e+02	2.14900e+03	0.0260115	700.0
2150	7.00499e+02	2.15000e+03	0.0259798	700.0
2151	7.00502e+02	2.15100e+03	0.025946	700.0
2152	7.00510e+02	2.15200e+03	0.025909	700.0
2153	7.00504e+02	2.15300e+03	0.0258784	700.0
2154	7.00503e+02	2.15400e+03	0.0258519	700.0
2155	7.00496e+02	2.15500e+03	0.0258277	700.0
2156	7.00494e+02	2.15600e+03	0.0258138	700.0
2157	7.00496e+02	2.15700e+03	0.0258001	700.0
2158	7.00505e+02	2.15800e+03	0.025793	700.0
2159	7.00495e+02	2.15900e+03	0.0257917	700.0
2160	7.00495e+02	2.16000e+03	0.0258091	700.0
2161	7.00499e+02	2.16100e+03	0.0258234	700.0
2162	7.00494e+02	2.16200e+03	0.0258392	700.0
2163	7.00500e+02	2.16300e+03	0.0258566	700.0
2164	7.00493e+02	2.16400e+03	0.0258882	700.0
2165	7.00490e+02	2.16500e+03	0.0259113	700.0
2166	7.00489e+02	2.16600e+03	0.0259327	700.0
2167	7.00500e+02	2.16700e+03	0.0259549	700.0
2168	7.00512e+02	2.16800e+03	0.0259778	700.0
2169	7.00498e+02	2.16900e+03	0.0260016	700.0
2170	7.00501e+02	2.17000e+03	0.0260235	700.0
2171	7.00492e+02	2.17100e+03	0.0260435	700.0
2172	7.00499e+02	2.17200e+03	0.0260655	700.0
2173	7.00506e+02	2.17300e+03	0.0260849	700.0
2174	7.00506e+02	2.17400e+03	0.026102	700.0
2175	7.00498e+02	2.17500e+03	0.0261189	700.0
2176	7.00493e+02	2.17600e+03	0.026129	700.0
2177	7.00499e+02	2.17700e+03	0.0261378	700.0
2178	7.00505e+02	2.17800e+03	0.0261426	700.0
2179	7.00491e+02	2.17900e+03	0.0261443	700.0
2180	7.00488e+02	2.18000e+03	0.0261358	700.0
2181	7.00491e+02	2.18100e+03	0.0261292	700.0
2182	7.00496e+02	2.18200e+03	0.026125	700.0
2183	7.00496e+02	2.18300e+03	0.0261228	700.0
2184	7.00503e+02	2.18400e+03	0.0261171	700.0
2185	7.00489e+02	2.18500e+03	0.0261154	700.0
2186	7.00491e+02	2.18600e+03	0.0261136	700.0
2187	7.00494e+02	2.18700e+03	0.0261094	700.0
2188	7.00499e+02	2.18800e+03	0.0261047	700.0
2189	7.00497e+02	2.18900e+03	0.0260956	700.0
2190	7.00493e+02	2.19000e+03	0.0260855	700.0
2191	7.00493e+02	2.19100e+03	0.0260752	700.0
2192	7.00496e+02	2.19200e+03	0.0260559	700.0
2193	7.00489e+02	2.19300e+03	0.0260443	700.0
2194	7.00487e+02	2.19400e+03	0.0260354	700.0
2195	7.00489e+02	2.19500e+03	0.0260276	700.0
2196	7.00492e+02	2.19600e+03	0.0260279	700.0
2197	7.00491e+02	2.19700e+03	0.0260254	700.0
2198	7.00492e+02	2.19800e+03	0.0260243	700.0
2199	7.00498e+02	2.19900e+03	0.0260265	700.0
2200	7.00490e+02	2.20000e+03	0.0260387	700.0
2201	7.00491e+02	2.20100e+03	0.0260495	700.0
2202	7.00485e+02	2.20200e+03	0.0260601	700.0
2203	7.00489e+02	2.20300e+03	0.0260707	700.0
2204	7.00489e+02	2.20400e+03	0.0260882	700.0
2205	7.00495e+02	2.20500e+03	0.026099	700.0
2206	7.00485e+02	2.20600e+03	0.0261086	700.0
2207	7.00481e+02	2.20700e+03	0.0261195	700.0
2208	7.00484e+02	2.20800e+03	0.0261298	700.0
2209	7.00481e+02	2.20900e+03	0.026143	700.0
2210	7.00491e+02	2.21000e+03	0.0261561	700.0
2211	7.00485e+02	2.21100e+03	0.0261685	700.0
2212	7.00475e+02	2.21200e+03	0.0261839	700.0
2213	7.00487e+02	2.21300e+03	0.0261928	700.0
2214	7.00484e+02	2.21400e+03	0.0261981	700.0
2215	7.00482e+02	2.21500e+03	0.0262013	700.0
2216	7.00484e+02	2.21600e+03	0.0261914	700.0
2217	7.00485e+02	2.21700e+03	0.0261854	700.0
2218	7.00481e+02	2.21800e+03	0.0261789	700.0
2219	7.00481e+02	2.21900e+03	0.0261716	700.0
2220	7.00469e+02	2.22000e+03	0.0261602	700.0
2221	7.00479e+02	2.22100e+03	0.0261519	700.0
2222	7.00488e+02	2.22200e+03	0.0261448	700.0
2223	7.00484e+02	2.22300e+03	0.0261382	700.0
2224	7.00474e+02	2.22400e+03	0.0261417	700.0
2225	7.00472e+02	2.22500e+03	0.0261477	700.0
2226	7.00475e+02	2.22600e+03	0.0261544	700.0
2227	7.00481e+02	2.22700e+03	0.0261612	700.0
2228	7.00476e+02	2.22800e+03	0.0261758	700.0
2229	7.00470e+02	2.22900e+03	0.0261824	700.0
2230	7.00482e+02	2.23000e+03	0.0261856	700.0
2231	7.00477e+02	2.23100e+03	0.0261871	700.0
2232	7.00477e+02	2.23200e+03	0.0261815	700.0
2233	7.00461e+02	2.23300e+03	0.026183	700.0
2234	7.00476e+02	2.23400e+03	0.0261864	700.0
2235	7.00473e+02	2.23500e+03	0.0261892	700.0
2236	7.00479e+02	2.23600e+03	0.0261924	700.0
2237	7.00473e+02	2.23700e+03	0.0261921	700.0
2238	7.00470e+02	2.23800e+03	0.0261889	700.0
2239	7.00462e+02	2.23900e+03	0.0261839	700.0
2240	7.00471e+02	2.24000e+03	0.0261697	700.0
2241	7.00465e+02	2.24100e+03	0.0261566	700.0
2242	7.00467e+02	2.24200e+03	0.0261425	700.0
2243	7.00469e+02	2.24300e+03	0.0261275	700.0
2244	7.00473e+02	2.24400e+03	0.026106	700.0
2245	7.00472e+02	2.24500e+03	0.026088	700.0
2246	7.00467e+02	2.24600e+03	0.0260707	700.0
2247	7.00469e+02	2.24700e+03	0.0260534	700.0
2248	7.00478e+02	2.24800e+03	0.0260425	700.0
2249	7.00477e+02	2.24900e+03	0.026035	700.0
2250	7.00461e+02	2.25000e+03	0.0260298	700.0
2251	7.00462e+02	2.25100e+03	0.0260254	700.0
2252	7.00466e+02	2.25200e+03	0.0260301	700.0
2253	7.00465e+02	2.25300e+03	0.0260294	700.0
2254	7.00467e+02	2.25400e+03	0.0260269	700.0
2255	7.00472e+02	2.25500e+03	0.0260236	700.0
2256	7.00460e+02	2.25600e+03	0.0260169	700.0
2257	7.00478e+02	2.25700e+03	0.0260099	700.0
2258	7.00470e+02	2.25800e+03	0.0260022	700.0
2259	7.00466e+02	2.25900e+03	0.0259943	700.0
2260	7.00460e+02	2.26000e+03	0.0259842	700.0
2261	7.00467e+02	2.26100e+03	0.0259776	700.0
2262	7.00460e+02	2.26200e+03	0.0259729	700.0
2263	7.00466e+02	2.26300e+03	0.0259693	700.0
2264	7.00465e+02	2.26400e+03	0.0259729	700.0
2265	7.00462e+02	2.26500e+03	0.0259756	700.0
2266	7.00457e+02	2.26600e+03	0.0259792	700.0
2267	7.00455e+02	2.26700e+03	0.0259833	700.0
2268	7.00457e+02	2.26800e+03	0.0259854	700.0
2269	7.00466e+02	2.26900e+03	0.0259789	700.0
2270	7.00463e+02	2.27000e+03	0.0259652	700.0
2271	7.00463e+02	2.27100e+03	0.0259461	700.0
2272	7.00453e+02	2.27200e+03	0.0259033	700.0
2273	7.00453e+02	2.27300e+03	0.0258684	700.0
2274	7.00458e+02	2.27400e+03	0.0258388	700.0
2275	7.00463e+02	2.27500e+03	0.0258139	700.0
2276	7.00455e+02	2.27600e+03	0.0257889	700.0
2277	7.00457e+02	2.27700e+03	0.0257716	700.0
2278	7.00457e+02	2.27800e+03	0.0257576	700.0
2279	7.00453e+02	2.27900e+03	0.025745	700.0
2280	7.00459e+02	2.28000e+03	0.0257555	700.0
2281	7.00464e+02	2.28100e+03	0.0257601	700.0
2282	7.00464e+02	2.28200e+03	0.0257684	700.0
2283	7.00458e+02	2.28300e+03	0.0257803	700.0
2284	7.00458e+02	2.28400e+03	0.0258061	700.0
2285	7.00451e+02	2.28500e+03	0.0258308	700.0
2286	7.00449e+02	2.28600e+03	0.0258556	700.0
2287	7.00459e+02	2.28700e+03	0.0258804	700.0
2288	7.00446e+02	2.28800e+03	0.0259135	700.0
2289	7.00451e+02	2.28900e+03	0.0259364	700.0
2290	7.00451e+02	2.29000e+03	0.0259559	700.0
2291	7.00461e+02	2.29100e+03	0.0259755	700.0
2292	7.00458e+02	2.29200e+03	0.0259848	700.0
2293	7.00451e+02	2.29300e+03	0.0259974	700.0
2294	7.00456e+02	2.29400e+03	0.026008	700.0
2295	7.00457e+02	2.29500e+03	0.0260161	700.0
2296	7.00456e+02	2.29600e+03	0.0260136	700.0
2297	7.00447e+02	2.29700e+03	0.026008	700.0
2298	7.00447e+02	2.29800e+03	0.0260009	700.0
2299	7.00450e+02	2.29900e+03	0.0259934	700.0
2300	7.00450e+02	2.30000e+03	0.0259813	700.0
2301	7.00443e+02	2.30100e+03	0.0259825	700.0
2302	7.00447e+02	2.30200e+03	0.0259884	700.0
2303	7.00443e+02	2.30300e+03	0.0259962	700.0
2304	7.00446e+02	2.30400e+03	0.0260234	700.0
2305	7.00442e+02	2.30500e+03	0.0260404	700.0
2306	7.00443e+02	2.30600e+03	0.0260563	700.0
2307	7.00437e+02	2.30700e+03	0.0260739	700.0
2308	7.00442e+02	2.30800e+03	0.0260933	700.0
2309	7.00437e+02	2.30900e+03	0.0261103	700.0
2310	7.00442e+02	2.31000e+03	0.0261235	700.0
2311	7.00448e+02	2.31100e+03	0.0261339	700.0
2312	7.00443e+02	2.31200e+03	0.0261347	700.0
2313	7.00441e+02	2.31300e+03	0.0261307	700.0
2314	7.00443e+02	2.31400e+03	0.0261218	700.0
2315	7.00435e+02	2.31500e+03	0.0261098	700.0
2316	7.00435e+02	2.31600e+03	0.0260773	700.0
2317	7.00443e+02	2.31700e+03	0.0260541	700.0
2318	7.00443e+02	2.31800e+03	0.0260326	700.0
2319	7.00444e+02	2.31900e+03	0.0260112	700.0
2320	7.00442e+02	2.32000e+03	0.0259916	700.0
2321	7.00444e+02	2.32100e+03	0.0259748	700.0
2322	7.00436e+02	2.32200e+03	0.0259602	700.0
2323	7.00437e+02	2.32300e+03	0.0259471	700.0
2324	7.00434e+02	2.32400e+03	0.0259493	700.0
2325	7.00433e+02	2.32500e+03	0.0259533	700.0
2326	7.00439e+02	2.32600e+03	0.0259609	700.0
2327	7.00438e+02	2.32700e+03	0.0259705	700.0
2328	7.00436e+02	2.32800e+03	0.0259947	700.0
2329	7.00437e+02	2.32900e+03	0.0260099	700.0
2330	7.00437e+02	2.33000e+03	0.0260212	700.0
2331	7.00443e+02	2.33100e+03	0.0260302	700.0
2332	7.00433e+02	2.33200e+03	0.0260291	700.0
2333	7.00437e+02	2.33300e+03	0.0260277	700.0
2334	7.00435e+02	2.33400e+03	0.0260264	700.0
2335	7.00431e+02	2.33500e+03	0.0260248	700.0
2336	7.00428e+02	2.33600e+03	0.0260094	700.0
2337	7.00431e+02	2.33700e+03	0.0259992	700.0
2338	7.00435e+02	2.33800e+03	0.0259893	700.0
2339	7.00441e+02	2.33900e+03	0.0259788	700.0
2340	7.00424e+02	2.34000e+03	0.0259689	700.0
2341	7.00421e+02	2.34100e+03	0.0259598	700.0
2342	7.00429e+02	2.34200e+03	0.0259512	700.0
2343	7.00435e+02	2.34300e+03	0.0259429	700.0
2344	7.00440e+02	2.34400e+03	0.0259357	700.0
2345	7.00431e+02	2.34500e+03	0.0259275	700.0
2346	7.00431e+02	2.34600e+03	0.0259188	700.0
2347	7.00432e+02	2.34700e+03	0.0259098	700.0
2348	7.00430e+02	2.34800e+03	0.0258999	700.0
2349	7.00425e+02	2.34900e+03	0.025891	700.0
2350	7.00436e+02	2.35000e+03	0.0258831	700.0
2351	7.00433e+02	2.35100e+03	0.0258762	700.0
2352	7.00429e+02	2.35200e+03	0.0258717	700.0
2353	7.00429e+02	2.35300e+03	0.0258667	700.0
2354	7.00435e+02	2.35400e+03	0.0258606	700.0
2355	7.00438e+02	2.35500e+03	0.0258536	700.0
2356	7.00440e+02	2.35600e+03	0.0258484	700.0
2357	7.00439e+02	2.35700e+03	0.0258435	700.0
2358	7.00439e+02	2.35800e+03	0.0258411	700.0
2359	7.00437e+02	2.35900e+03	0.0258408	700.0
2360	7.00436e+02	2.36000e+03	0.0258483	700.0
2361	7.00429e+02	2.36100e+03	0.0258583	700.0
2362	7.00431e+02	2.36200e+03	0.0258703	700.0
2363	7.00436e+02	2.36300e+03	0.0258834	700.0
2364	7.00431e+02	2.36400e+03	0.0259058	700.0
2365	7.00436e+02	2.36500e+03	0.0259225	700.0
2366	7.00423e+02	2.36600e+03	0.0259409	700.0
2367	7.00427e+02	2.36700e+03	0.0259606	700.0
2368	7.00425e+02	2.36800e+03	0.0259764	700.0
2369	7.00425e+02	2.36900e+03	0.0259933	700.0
2370	7.00427e+02	2.37000e+03	0.0260087	700.0
2371	7.00421e+02	2.37100e+03	0.0260225	700.0
2372	7.00435e+02	2.37200e+03	0.0260313	700.0
2373	7.00426e+02	2.37300e+03	0.0260358	700.0
2374	7.00424e+02	2.37400e+03	0.0260359	700.0
2375	7.00423e+02	2.37500e+03	0.0260335	700.0
2376	7.00428e+02	2.37600e+03	0.0260196	700.0
2377	7.00430e+02	2.37700e+03	0.0260125	700.0
2378	7.00426e+02	2.37800e+03	0.026005	700.0
2379	7.00432e+02	2.37900e+03	0.0259962	700.0
2380	7.00432e+02	2.38000e+03	0.0259841	700.0
2381	7.00436e+02	2.38100e+03	0.0259686	700.0
2382	7.00427e+02	2.38200e+03	0.0259491	700.0
2383	7.00421e+02	2.38300e+03	0.025927	700.0
2384	7.00429e+02	2.38400e+03	0.0258938	700.0
2385	7.00434e+02	2.38500e+03	0.025866	700.0
2386	7.00423e+02	2.38600e+03	0.0258412	700.0
2387	7.00425e+02	2.38700e+03	0.0258182	700.0
2388	7.00431e+02	2.38800e+03	0.0258026	700.0
2389	7.00427e+02	2.38900e+03	0.0257918	700.0
2390	7.00421e+02	2.39000e+03	0.0257866	700.0
2391	7.00429e+02	2.39100e+03	0.0257859	700.0
2392	7.00420e+02	2.39200e+03	0.0258099	700.0
2393	7.00429e+02	2.39300e+03	0.0258259	700.0
2394	7.00424e+02	2.39400e+03	0.0258396	700.0
2395	7.00419e+02	2.39500e+03	0.025852	700.0
2396	7.00425e+02	2.39600e+03	0.0258661	700.0
2397	7.00430e+02	2.39700e+03	0.0258725	700.0
2398	7.00421e+02	2.39800e+03	0.0258751	700.0
2399	7.00422e+02	2.39900e+03	0.0258761	700.0
2400	7.00420e+02	2.40000e+03	0.0258672	700.0
2401	7.00422e+02	2.40100e+03	0.0258683	700.0
2402	7.00422e+02	2.40200e+03	0.0258739	700.0
2403	7.00417e+02	2.40300e+03	0.0258818	700.0
2404	7.00413e+02	2.40400e+03	0.0259016	700.0
2405	7.00413e+02	2.40500e+03	0.0259138	700.0
2406	7.00417e+02	2.40600e+03	0.0259203	700.0
2407	7.00418e+02	2.40700e+03	0.0259238	700.0
2408	7.00413e+02	2.40800e+03	0.0259213	700.0
2409	7.00420e+02	2.40900e+03	0.0259175	700.0
2410	7.00425e+02	2.41000e+03	0.025914	700.0
2411	7.00417e+02	2.41100e+03	0.0259113	700.0
2412	7.00419e+02	2.41200e+03	0.0259057	700.0
2413	7.00414e+02	2.41300e+03	0.0259103	700.0
2414	7.00415e+02	2.41400e+03	0.0259197	700.0
2415	7.00415e+02	2.41500e+03	0.0259314	700.0
2416	7.00414e+02	2.41600e+03	0.0259614	700.0
2417	7.00413e+02	2.41700e+03	0.0259805	700.0
2418	7.00410e+02	2.41800e+03	0.0259911	700.0
2419	7.00415e+02	2.41900e+03	0.0259949	700.0
2420	7.00414e+02	2.42000e+03	0.0259672	700.0
2421	7.00415e+02	2.42100e+03	0.0259287	700.0
2422	7.00408e+02	2.42200e+03	0.0258771	700.0
2423	7.00415e+02	2.42300e+03	0.0258172	700.0
2424	7.00419e+02	2.42400e+03	0.0257069	700.0
2425	7.00414e+02	2.42500e+03	0.0256276	700.0
2426	7.00414e+02	2.42600e+03	0.025564	700.0
2427	7.00410e+02	2.42700e+03	0.0255098	700.0
2428	7.00414e+02	2.42800e+03	0.0254948	700.0
2429	7.00410e+02	2.42900e+03	0.0254888	700.0
2430	7.00417e+02	2.43000e+03	0.0254966	700.0
2431	7.00418e+02	2.43100e+03	0.0255137	700.0
2432	7.00413e+02	2.43200e+03	0.0255945	700.0
2433	7.00412e+02	2.43300e+03	0.0256477	700.0
2434	7.00421e+02	2.43400e+03	0.0256975	700.0
2435	7.00420e+02	2.43500e+03	0.0257481	700.0
2436	7.00419e+02	2.43600e+03	0.0257995	700.0
2437	7.00419e+02	2.43700e+03	0.0258432	700.0
2438	7.00409e+02	2.43800e+03	0.0258811	700.0
2439	7.00409e+02	2.43900e+03	0.0259153	700.0
2440	7.00410e+02	2.44000e+03	0.0259325	700.0
2441	7.00414e+02	2.44100e+03	0.0259563	700.0
2442	7.00413e+02	2.44200e+03	0.0259799	700.0
2443	7.00417e+02	2.44300e+03	0.0260032	700.0
2444	7.00418e+02	2.44400e+03	0.0260241	700.0
2445	7.00411e+02	2.44500e+03	0.0260477	700.0
2446	7.00405e+02	2.44600e+03	0.0260702	700.0
2447	7.00410e+02	2.44700e+03	0.0260913	700.0
2448	7.00415e+02	2.44800e+03	0.0261121	700.0
2449	7.00412e+02	2.44900e+03	0.0261275	700.0
2450	7.00408e+02	2.45000e+03	0.0261384	700.0
2451	7.00409e+02	2.45100e+03	0.0261465	700.0
2452	7.00410e+02	2.45200e+03	0.0261371	700.0
2453	7.00417e+02	2.45300e+03	0.0261295	700.0
2454	7.00410e+02	2.45400e+03	0.0261169	700.0
2455	7.00413e+02	2.45500e+03	0.0260988	700.0
2456	7.00410e+02	2.45600e+03	0.0260607	700.0
2457	7.00410e+02	2.45700e+03	0.0260292	700.0
2458	7.00407e+02	2.45800e+03	0.0259988	700.0
2459	7.00407e+02	2.45900e+03	0.0259687	700.0
2460	7.00409e+02	2.46000e+03	0.0259396	700.0
2461	7.00407e+02	2.46100e+03	0.0259202	700.0
2462	7.00409e+02	2.46200e+03	0.0259045	700.0
2463	7.00408e+02	2.46300e+03	0.0258903	700.0
2464	7.00415e+02	2.46400e+03	0.0258935	700.0
2465	7.00397e+02	2.46500e+03	0.025887	700.0
2466	7.00403e+02	2.46600e+03	0.025879	700.0
2467	7.00407e+02	2.46700e+03	0.0258711	700.0
2468	7.00407e+02	2.46800e+03	0.0258667	700.0
2469	7.00406e+02	2.46900e+03	0.02587	700.0
2470	7.00408e+02	2.47000e+03	0.0258791	700.0
2471	7.00403e+02	2.47100e+03	0.0258909	700.0
2472	7.00405e+02	2.47200e+03	0.0259154	700.0
2473	7.00411e+02	2.47300e+03	0.0259305	700.0
2474	7.00401e+02	2.47400e+03	0.0259429	700.0
2475	7.00395e+02	2.47500e+03	0.025955	700.0
2476	7.00403e+02	2.47600e+03	0.0259678	700.0
2477	7.00406e+02	2.47700e+03	0.0259839	700.0
2478	7.00397e+02	2.47800e+03	0.0260011	700.0
2479	7.00392e+02	2.47900e+03	0.0260177	700.0
2480	7.00402e+02	2.48000e+03	0.0260323	700.0
2481	7.00407e+02	2.48100e+03	0.0260423	700.0
2482	7.00397e+02	2.48200e+03	0.0260482	700.0
2483	7.00396e+02	2.48300e+03	0.0260514	700.0
2484	7.00406e+02	2.48400e+03	0.0260405	700.0
2485	7.00406e+02	2.48500e+03	0.0260324	700.0
2486	7.00396e+02	2.48600e+03	0.0260231	700.0
2487	7.00403e+02	2.48700e+03	0.0260125	700.0
2488	7.00400e+02	2.48800e+03	0.0259943	700.0
2489	7.00404e+02	2.48900e+03	0.0259809	700.0
2490	7.00404e+02	2.49000e+03	0.025969	700.0
2491	7.00401e+02	2.49100e+03	0.0259576	700.0
2492	7.00391e+02	2.49200e+03	0.0259507	700.0
2493	7.00397e+02	2.49300e+03	0.0259464	700.0
2494	7.00400e+02	2.49400e+03	0.0259464	700.0
2495	7.00400e+02	2.49500e+03	0.0259485	700.0
2496	7.00393e+02	2.49600e+03	0.0259557	700.0
2497	7.00397e+02	2.49700e+03	0.0259583	700.0
2498	7.00396e+02	2.49800e+03	0.0259603	700.0
2499	7.00393e+02	2.49900e+03	0.0259627	700.0
2500	7.00389e+02	2.50000e+03	0.0259667	700.0
2501	7.00397e+02	2.50100e+03	0.025973	700.0
2502	7.00405e+02	2.50200e+03	0.0259811	700.0
2503	7.00402e+02	2.50300e+03	0.0259902	700.0
2504	7.00394e+02	2.50400e+03	0.0260063	700.0
2505	7.00396e+02	2.50500e+03	0.0260196	700.0
2506	7.00396e+02	2.50600e+03	0.0260317	700.0
2507	7.00395e+02	2.50700e+03	0.0260431	700.0
2508	7.00394e+02	2.50800e+03	0.0260506	700.0
2509	7.00392e+02	2.50900e+03	0.0260549	700.0
2510	7.00395e+02	2.51000e+03	0.0260566	700.0
2511	7.00404e+02	2.51100e+03	0.0260569	700.0
2512	7.00399e+02	2.51200e+03	0.0260471	700.0
2513	7.00401e+02	2.51300e+03	0.0260424	700.0
2514	7.00404e+02	2.51400e+03	0.0260384	700.0
2515	7.00400e+02	2.51500e+03	0.0260344	700.0
2516	7.00395e+02	2.51600e+03	0.0260321	700.0
2517	7.00391e+02	2.51700e+03	0.0260341	700.0
2518	7.00397e+02	2.51800e+03	0.0260413	700.0
2519	7.00397e+02	2.51900e+03	0.0260508	700.0
2520	7.00394e+02	2.52000e+03	0.0260661	700.0
2521	7.00399e+02	2.52100e+03	0.0260755	700.0
2522	7.00401e+02	2.52200e+03	0.0260812	700.0
2523	7.00401e+02	2.52300e+03	0.0260847	700.0
2524	7.00399e+02	2.52400e+03	0.026082	700.0
2525	7.00396e+02	2.52500e+03	0.0260803	700.0
2526	7.00397e+02	2.52600e+03	0.0260799	700.0
2527	7.00393e+02	2.52700e+03	0.0260805	700.0
2528	7.00397e+02	2.52800e+03	0.0260835	700.0
2529	7.00390e+02	2.52900e+03	0.0260924	700.0
2530	7.00393e+02	2.53000e+03	0.0261038	700.0
2531	7.00389e+02	2.53100e+03	0.0261162	700.0
2532	7.00394e+02	2.53200e+03	0.0261382	700.0
2533	7.00384e+02	2.53300e+03	0.0261503	700.0
2534	7.00388e+02	2.53400e+03	0.0261585	700.0
2535	7.00393e+02	2.53500e+03	0.026165	700.0
2536	7.00393e+02	2.53600e+03	0.0261589	700.0
2537	7.00391e+02	2.53700e+03	0.0261563	700.0
2538	7.00391e+02	2.53800e+03	0.0261528	700.0
2539	7.00393e+02	2.53900e+03	0.026148	700.0
2540	7.00398e+02	2.54000e+03	0.0261366	700.0
2541	7.00387e+02	2.54100e+03	0.0261272	700.0
2542	7.00387e+02	2.54200e+03	0.026118	700.0
2543	7.00399e+02	2.54300e+03	0.0261092	700.0
2544	7.00389e+02	2.54400e+03	0.0261047	700.0
2545	7.00393e+02	2.54500e+03	0.026103	700.0
2546	7.00384e+02	2.54600e+03	0.0261012	700.0
2547	7.00394e+02	2.54700e+03	0.0260987	700.0
2548	7.00392e+02	2.54800e+03	0.0260993	700.0
2549	7.00396e+02	2.54900e+03	0.0260931	700.0
2550	7.00388e+02	2.55000e+03	0.0260848	700.0
2551	7.00392e+02	2.55100e+03	0.0260761	700.0
2552	7.00384e+02	2.55200e+03	0.0260616	700.0
2553	7.00392e+02	2.55300e+03	0.0260548	700.0
2554	7.00386e+02	2.55400e+03	0.0260513	700.0
2555	7.00392e+02	2.55500e+03	0.0260492	700.0
2556	7.00392e+02	2.55600e+03	0.0260576	700.0
2557	7.00389e+02	2.55700e+03	0.0260613	700.0
2558	7.00391e+02	2.55800e+03	0.0260631	700.0
2559	7.00396e+02	2.55900e+03	0.0260639	700.0
2560	7.00397e+02	2.56000e+03	0.0260597	700.0
2561	7.00396e+02	2.56100e+03	0.0260525	700.0
2562	7.00394e+02	2.56200e+03	0.0260436	700.0
2563	7.00389e+02	2.56300e+03	0.0260338	700.0
2564	7.00395e+02	2.56400e+03	0.0260158	700.0
2565	7.00391e+02	2.56500e+03	0.0260044	700.0
2566	7.00385e+02	2.56600e+03	0.0259947	700.0
2567	7.00392e+02	2.56700e+03	0.0259856	700.0
2568	7.00392e+02	2.56800e+03	0.025988	700.0
2569	7.00393e+02	2.56900e+03	0.0259909	700.0
2570	7.00398e+02	2.57000e+03	0.0259942	700.0
2571	7.00404e+02	2.57100e+03	0.0259978	700.0
2572	7.00387e+02	2.57200e+03	0.0260082	700.0
2573	7.00392e+02	2.57300e+03	0.0260099	700.0
2574	7.00393e+02	2.57400e+03	0.0260057	700.0
2575	7.00393e+02	2.57500e+03	0.0259991	700.0
2576	7.00395e+02	2.57600e+03	0.0259853	700.0
2577	7.00396e+02	2.57700e+03	0.0259768	700.0
2578	7.00390e+02	2.57800e+03	0.0259705	700.0
2579	7.00396e+02	2.57900e+03	0.0259654	700.0
2580	7.00393e+02	2.58000e+03	0.0259629	700.0
2581	7.00393e+02	2.58100e+03	0.0259578	700.0
2582	7.00398e+02	2.58200e+03	0.0259492	700.0
2583	7.00397e+02	2.58300e+03	0.0259389	700.0
2584	7.00390e+02	2.58400e+03	0.0259315	700.0
2585	7.00392e+02	2.58500e+03	0.0259275	700.0
2586	7.00383e+02	2.58600e+03	0.0259266	700.0
2587	7.00393e+02	2.58700e+03	0.025927	700.0
2588	7.00394e+02	2.58800e+03	0.0259325	700.0
2589	7.00385e+02	2.58900e+03	0.0259364	700.0
2590	7.00384e+02	2.59000e+03	0.0259392	700.0
2591	7.00388e+02	2.59100e+03	0.0259411	700.0
2592	7.00390e+02	2.59200e+03	0.0259415	700.0
2593	7.00381e+02	2.59300e+03	0.025938	700.0
2594	7.00387e+02	2.59400e+03	0.0259319	700.0
2595	7.00390e+02	2.59500e+03	0.0259243	700.0
2596	7.00389e+02	2.59600e+03	0.0259054	700.0
2597	7.00391e+02	2.59700e+03	0.0258865	700.0
2598	7.00384e+02	2.59800e+03	0.0258646	700.0
2599	7.00389e+02	2.59900e+03	0.025842	700.0
2600	7.00391e+02	2.60000e+03	0.0258158	700.0
2601	7.00378e+02	2.60100e+03	0.0257946	700.0
2602	7.00385e+02	2.60200e+03	0.0257762	700.0
2603	7.00383e+02	2.60300e+03	0.0257593	700.0
2604	7.00393e+02	2.60400e+03	0.0257505	700.0
2605	7.00387e+02	2.60500e+03	0.025741	700.0
2606	7.00380e+02	2.60600e+03	0.0257329	700.0
2607	7.00389e+02	2.60700e+03	0.025726	700.0
2608	7.00391e+02	2.60800e+03	0.0257267	700.0
2609	7.00387e+02	2.60900e+03	0.0257246	700.0
2610	7.00385e+02	2.61000e+03	0.0257226	700.0
2611	7.00389e+02	2.61100e+03	0.0257209	700.0
2612	7.00391e+02	2.61200e+03	0.0257211	700.0
2613	7.00381e+02	2.61300e+03	0.0257199	700.0
2614	7.00389e+02	2.61400e+03	0.0257174	700.0
2615	7.00393e+02	2.61500e+03	0.025714	700.0
2616	7.00379e+02	2.61600e+03	0.0257061	700.0
2617	7.00385e+02	2.61700e+03	0.0256967	700.0
2618	7.00393e+02	2.61800e+03	0.0256856	700.0
2619	7.00392e+02	2.61900e+03	0.0256735	700.0
2620	7.00380e+02	2.62000e+03	0.0256547	700.0
2621	7.00386e+02	2.62100e+03	0.0256402	700.0
2622	7.00387e+02	2.62200e+03	0.0256274	700.0
2623	7.00392e+02	2.62300e+03	0.0256155	700.0
2624	7.00385e+02	2.62400e+03	0.0256094	700.0
2625	7.00385e+02	2.62500e+03	0.0256052	700.0
2626	7.00380e+02	2.62600e+03	0.0256062	700.0
2627	7.00379e+02	2.62700e+03	0.0256116	700.0
2628	7.00385e+02	2.62800e+03	0.0256315	700.0
2629	7.00385e+02	2.62900e+03	0.0256474	700.0
2630	7.00391e+02	2.63000e+03	0.0256635	700.0
2631	7.00384e+02	2.63100e+03	0.0256803	700.0
2632	7.00385e+02	2.63200e+03	0.025705	700.0
2633	7.00379e+02	2.63300e+03	0.0257242	700.0
2634	7.00387e+02	2.63400e+03	0.0257416	700.0
2635	7.00388e+02	2.63500e+03	0.0257585	700.0
2636	7.00390e+02	2.63600e+03	0.0257766	700.0
2637	7.00396e+02	2.63700e+03	0.025798	700.0
2638	7.00390e+02	2.63800e+03	0.0258189	700.0
2639	7.00386e+02	2.63900e+03	0.025839	700.0
2640	7.00386e+02	2.64000e+03	0.0258606	700.0
2641	7.00381e+02	2.64100e+03	0.0258773	700.0
2642	7.00391e+02	2.64200e+03	0.0258911	700.0
2643	7.00390e+02	2.64300e+03	0.0259033	700.0
2644	7.00372e+02	2.64400e+03	0.0259064	700.0
2645	7.00377e+02	2.64500e+03	0.0259136	700.0
2646	7.00386e+02	2.64600e+03	0.0259213	700.0
2647	7.00390e+02	2.64700e+03	0.0259287	700.0
2648	7.00383e+02	2.64800e+03	0.0259344	700.0
2649	7.00385e+02	2.64900e+03	0.0259396	700.0
2650	7.00384e+02	2.65000e+03	0.025943	700.0
2651	7.00375e+02	2.65100e+03	0.025945	700.0
2652	7.00388e+02	2.65200e+03	0.0259401	700.0
2653	7.00388e+02	2.65300e+03	0.025936	700.0
2654	7.00385e+02	2.65400e+03	0.0259343	700.0
2655	7.00385e+02	2.65500e+03	0.0259343	700.0
2656	7.00384e+02	2.65600e+03	0.0259289	700.0
2657	7.00385e+02	2.65700e+03	0.025926	700.0
2658	7.00382e+02	2.65800e+03	0.0259226	700.0
2659	7.00383e+02	2.65900e+03	0.0259183	700.0
2660	7.00386e+02	2.66000e+03	0.0259143	700.0
2661	7.00387e+02	2.66100e+03	0.0259075	700.0
2662	7.00386e+02	2.66200e+03	0.0258994	700.0
2663	7.00381e+02	2.66300e+03	0.0258904	700.0
2664	7.00377e+02	2.66400e+03	0.0258751	700.0
2665	7.00390e+02	2.66500e+03	0.0258622	700.0
2666	7.00386e+02	2.66600e+03	0.0258492	700.0
2667	7.00386e+02	2.66700e+03	0.0258359	700.0
2668	7.00383e+02	2.66800e+03	0.025822	700.0
2669	7.00384e+02	2.66900e+03	0.0258127	700.0
2670	7.00384e+02	2.67000e+03	0.025808	700.0
2671	7.00382e+02	2.67100e+03	0.0258049	700.0
2672	7.00375e+02	2.67200e+03	0.0258082	700.0
2673	7.00386e+02	2.67300e+03	0.0258097	700.0
2674	7.00379e+02	2.67400e+03	0.0258115	700.0
2675	7.00387e+02	2.67500e+03	0.0258139	700.0
2676	7.00397e+02	2.67600e+03	0.0258229	700.0
2677	7.00391e+02	2.67700e+03	0.0258315	700.0
2678	7.00386e+02	2.67800e+03	0.0258422	700.0
2679	7.00382e+02	2.67900e+03	0.0258548	700.0
2680	7.00385e+02	2.68000e+03	0.0258699	700.0
2681	7.00378e+02	2.68100e+03	0.0258813	700.0
2682	7.00382e+02	2.68200e+03	0.0258926	700.0
2683	7.00381e+02	2.68300e+03	0.0259041	700.0
2684	7.00381e+02	2.68400e+03	0.0259125	700.0
2685	7.00383e+02	2.68500e+03	0.0259207	700.0
2686	7.00382e+02	2.68600e+03	0.025928	700.0
2687	7.00377e+02	2.68700e+03	0.0259345	700.0
2688	7.00395e+02	2.68800e+03	0.0259357	700.0
2689	7.00379e+02	2.68900e+03	0.0259372	700.0
2690	7.00383e+02	2.69000e+03	0.025938	700.0
2691	7.00383e+02	2.69100e+03	0.0259384	700.0
2692	7.00385e+02	2.69200e+03	0.0259352	700.0
2693	7.00382e+02	2.69300e+03	0.0259344	700.0
2694	7.00380e+02	2.69400e+03	0.0259356	700.0
2695	7.00386e+02	2.69500e+03	0.0259389	700.0
2696	7.00384e+02	2.69600e+03	0.0259483	700.0
2697	7.00379e+02	2.69700e+03	0.0259571	700.0
2698	7.00376e+02	2.69800e+03	0.0259644	700.0
2699	7.00375e+02	2.69900e+03	0.0259697	700.0
2700	7.00383e+02	2.70000e+03	0.0259782	700.0
2701	7.00380e+02	2.70100e+03	0.0259833	700.0
2702	7.00383e+02	2.70200e+03	0.0259869	700.0
2703	7.00385e+02	2.70300e+03	0.0259899	700.0
2704	7.00384e+02	2.70400e+03	0.0259833	700.0
2705	7.00384e+02	2.70500e+03	0.0259783	700.0
2706	7.00388e+02	2.70600e+03	0.0259717	700.0
2707	7.00383e+02	2.70700e+03	0.0259636	700.0
2708	7.00374e+02	2.70800e+03	0.0259472	700.0
2709	7.00378e+02	2.70900e+03	0.0259316	700.0
2710	7.00383e+02	2.71000e+03	0.025916	700.0
2711	7.00383e+02	2.71100e+03	0.0259029	700.0
2712	7.00381e+02	2.71200e+03	0.0258915	700.0
2713	7.00376e+02	2.71300e+03	0.0258795	700.0
2714	7.00376e+02	2.71400e+03	0.025867	700.0
2715	7.00379e+02	2.71500e+03	0.0258548	700.0
2716	7.00383e+02	2.71600e+03	0.0258437	700.0
2717	7.00387e+02	2.71700e+03	0.0258351	700.0
2718	7.00381e+02	2.71800e+03	0.0258293	700.0
2719	7.00383e+02	2.71900e+03	0.025825	700.0
2720	7.00390e+02	2.72000e+03	0.02582	700.0
