Index	Ts	t	Weight	Tr
[#]	[°C]	[s]	[mg]	[°C]
681	1.30049e+02	6.81000e+02	3.03607	130.5
682	1.30550e+02	6.82000e+02	3.03605	131.0
683	1.31066e+02	6.83000e+02	3.03602	131.5
684	1.31564e+02	6.84000e+02	3.03599	132.0
685	1.32069e+02	6.85000e+02	3.03597	132.5
686	1.32578e+02	6.86000e+02	3.03595	133.0
687	1.33089e+02	6.87000e+02	3.03594	133.5
688	1.33586e+02	6.88000e+02	3.03595	134.0
689	1.34086e+02	6.89000e+02	3.03596	134.5
690	1.34591e+02	6.90000e+02	3.03598	135.0
691	1.35087e+02	6.91000e+02	3.036	135.5
692	1.35594e+02	6.92000e+02	3.03605	136.0
693	1.36107e+02	6.93000e+02	3.03608	136.5
694	1.36611e+02	6.94000e+02	3.03609	137.0
695	1.37102e+02	6.95000e+02	3.0361	137.5
696	1.37618e+02	6.96000e+02	3.03609	138.0
697	1.38131e+02	6.97000e+02	3.03608	138.5
698	1.38641e+02	6.98000e+02	3.03607	139.0
699	1.39141e+02	6.99000e+02	3.03605	139.5
700	1.39639e+02	7.00000e+02	3.03601	140.0
701	1.40154e+02	7.01000e+02	3.03597	140.5
702	1.40663e+02	7.02000e+02	3.03593	141.0
703	1.41156e+02	7.03000e+02	3.03589	141.5
704	1.41657e+02	7.04000e+02	3.03583	142.0
705	1.42168e+02	7.05000e+02	3.03579	142.5
706	1.42672e+02	7.06000e+02	3.03576	143.0
707	1.43172e+02	7.07000e+02	3.03572	143.5
708	1.43681e+02	7.08000e+02	3.0357	144.0
709	1.44197e+02	7.09000e+02	3.03568	144.5
710	1.44703e+02	7.10000e+02	3.03565	145.0
711	1.45197e+02	7.11000e+02	3.03562	145.5
712	1.45720e+02	7.12000e+02	3.0356	146.0
713	1.46216e+02	7.13000e+02	3.03558	146.5
714	1.46720e+02	7.14000e+02	3.03556	147.0
715	1.47224e+02	7.15000e+02	3.03554	147.5
716	1.47731e+02	7.16000e+02	3.03553	148.0
717	1.48239e+02	7.17000e+02	3.03551	148.5
718	1.48741e+02	7.18000e+02	3.0355	149.0
719	1.49245e+02	7.19000e+02	3.03548	149.5
720	1.49755e+02	7.20000e+02	3.03548	150.0
721	1.50269e+02	7.21000e+02	3.03547	150.5
722	1.50773e+02	7.22000e+02	3.03547	151.0
723	1.51281e+02	7.23000e+02	3.03548	151.5
724	1.51781e+02	7.24000e+02	3.03548	152.0
725	1.52290e+02	7.25000e+02	3.03548	152.5
726	1.52793e+02	7.26000e+02	3.03546	153.0
727	1.53299e+02	7.27000e+02	3.03544	153.5
728	1.53796e+02	7.28000e+02	3.0354	154.0
729	1.54308e+02	7.29000e+02	3.03537	154.5
730	1.54819e+02	7.30000e+02	3.03534	155.0
731	1.55321e+02	7.31000e+02	3.03531	155.5
732	1.55821e+02	7.32000e+02	3.03526	156.0
733	1.56338e+02	7.33000e+02	3.03522	156.5
734	1.56846e+02	7.34000e+02	3.03517	157.0
735	1.57349e+02	7.35000e+02	3.03512	157.5
736	1.57871e+02	7.36000e+02	3.03506	158.0
737	1.58375e+02	7.37000e+02	3.035	158.5
738	1.58876e+02	7.38000e+02	3.03495	159.0
739	1.59381e+02	7.39000e+02	3.03489	159.5
740	1.59891e+02	7.40000e+02	3.03483	160.0
741	1.60388e+02	7.41000e+02	3.03477	160.5
742	1.60892e+02	7.42000e+02	3.03472	161.0
743	1.61406e+02	7.43000e+02	3.03466	161.5
744	1.61910e+02	7.44000e+02	3.03463	162.0
745	1.62409e+02	7.45000e+02	3.03459	162.5
746	1.62925e+02	7.46000e+02	3.03456	163.0
747	1.63427e+02	7.47000e+02	3.03453	163.5
748	1.63948e+02	7.48000e+02	3.03451	164.0
749	1.64453e+02	7.49000e+02	3.03449	164.5
750	1.64966e+02	7.50000e+02	3.03447	165.0
751	1.65460e+02	7.51000e+02	3.03444	165.5
752	1.65973e+02	7.52000e+02	3.0344	166.0
753	1.66487e+02	7.53000e+02	3.03436	166.5
754	1.66989e+02	7.54000e+02	3.0343	167.0
755	1.67498e+02	7.55000e+02	3.03424	167.5
756	1.67997e+02	7.56000e+02	3.03416	168.0
757	1.68492e+02	7.57000e+02	3.03409	168.5
758	1.69020e+02	7.58000e+02	3.03402	169.0
759	1.69533e+02	7.59000e+02	3.03394	169.5
760	1.70051e+02	7.60000e+02	3.03387	170.0
761	1.70552e+02	7.61000e+02	3.0338	170.5
762	1.71053e+02	7.62000e+02	3.03374	171.0
763	1.71567e+02	7.63000e+02	3.03367	171.5
764	1.72070e+02	7.64000e+02	3.03361	172.0
765	1.72591e+02	7.65000e+02	3.03356	172.5
766	1.73090e+02	7.66000e+02	3.0335	173.0
767	1.73606e+02	7.67000e+02	3.03344	173.5
768	1.74111e+02	7.68000e+02	3.03339	174.0
769	1.74620e+02	7.69000e+02	3.03333	174.5
770	1.75139e+02	7.70000e+02	3.03328	175.0
771	1.75642e+02	7.71000e+02	3.03323	175.5
772	1.76152e+02	7.72000e+02	3.03319	176.0
773	1.76652e+02	7.73000e+02	3.03315	176.5
774	1.77154e+02	7.74000e+02	3.03311	177.0
775	1.77678e+02	7.75000e+02	3.03306	177.5
776	1.78189e+02	7.76000e+02	3.03302	178.0
777	1.78688e+02	7.77000e+02	3.03296	178.5
778	1.79206e+02	7.78000e+02	3.0329	179.0
779	1.79713e+02	7.79000e+02	3.03282	179.5
780	1.80210e+02	7.80000e+02	3.03273	180.0
781	1.80727e+02	7.81000e+02	3.03264	180.5
782	1.81237e+02	7.82000e+02	3.03256	181.0
783	1.81741e+02	7.83000e+02	3.03247	181.5
784	1.82259e+02	7.84000e+02	3.03238	182.0
785	1.82754e+02	7.85000e+02	3.03228	182.5
786	1.83262e+02	7.86000e+02	3.03219	183.0
787	1.83774e+02	7.87000e+02	3.0321	183.5
788	1.84281e+02	7.88000e+02	3.032	184.0
789	1.84794e+02	7.89000e+02	3.03191	184.5
790	1.85308e+02	7.90000e+02	3.03182	185.0
791	1.85806e+02	7.91000e+02	3.03173	185.5
792	1.86335e+02	7.92000e+02	3.03163	186.0
793	1.86829e+02	7.93000e+02	3.03152	186.5
794	1.87338e+02	7.94000e+02	3.03141	187.0
795	1.87847e+02	7.95000e+02	3.03129	187.5
796	1.88357e+02	7.96000e+02	3.03114	188.0
797	1.88868e+02	7.97000e+02	3.03101	188.5
798	1.89376e+02	7.98000e+02	3.03087	189.0
799	1.89893e+02	7.99000e+02	3.03073	189.5
800	1.90399e+02	8.00000e+02	3.03057	190.0
801	1.90898e+02	8.01000e+02	3.0304	190.5
802	1.91408e+02	8.02000e+02	3.03023	191.0
803	1.91922e+02	8.03000e+02	3.03006	191.5
804	1.92438e+02	8.04000e+02	3.02986	192.0
805	1.92952e+02	8.05000e+02	3.02968	192.5
806	1.93457e+02	8.06000e+02	3.0295	193.0
807	1.93967e+02	8.07000e+02	3.02933	193.5
808	1.94476e+02	8.08000e+02	3.02916	194.0
809	1.94985e+02	8.09000e+02	3.02899	194.5
810	1.95502e+02	8.10000e+02	3.02881	195.0
811	1.96005e+02	8.11000e+02	3.02863	195.5
812	1.96513e+02	8.12000e+02	3.02845	196.0
813	1.97023e+02	8.13000e+02	3.02825	196.5
814	1.97537e+02	8.14000e+02	3.02804	197.0
815	1.98042e+02	8.15000e+02	3.02782	197.5
816	1.98546e+02	8.16000e+02	3.02756	198.0
817	1.99064e+02	8.17000e+02	3.02732	198.5
818	1.99574e+02	8.18000e+02	3.02707	199.0
819	2.00081e+02	8.19000e+02	3.02682	199.5
820	2.00582e+02	8.20000e+02	3.02655	200.0
821	2.01086e+02	8.21000e+02	3.02629	200.5
822	2.01594e+02	8.22000e+02	3.02603	201.0
823	2.02116e+02	8.23000e+02	3.02577	201.5
824	2.02636e+02	8.24000e+02	3.0255	202.0
825	2.03149e+02	8.25000e+02	3.02521	202.5
826	2.03644e+02	8.26000e+02	3.02491	203.0
827	2.04151e+02	8.27000e+02	3.0246	203.5
828	2.04673e+02	8.28000e+02	3.02424	204.0
829	2.05182e+02	8.29000e+02	3.0239	204.5
830	2.05698e+02	8.30000e+02	3.02356	205.0
831	2.06200e+02	8.31000e+02	3.02322	205.5
832	2.06697e+02	8.32000e+02	3.02288	206.0
833	2.07212e+02	8.33000e+02	3.02254	206.5
834	2.07739e+02	8.34000e+02	3.0222	207.0
835	2.08236e+02	8.35000e+02	3.02187	207.5
836	2.08747e+02	8.36000e+02	3.02154	208.0
837	2.09279e+02	8.37000e+02	3.02121	208.5
838	2.09771e+02	8.38000e+02	3.02086	209.0
839	2.10290e+02	8.39000e+02	3.02052	209.5
840	2.10805e+02	8.40000e+02	3.02017	210.0
841	2.11320e+02	8.41000e+02	3.01981	210.5
842	2.11832e+02	8.42000e+02	3.01946	211.0
843	2.12348e+02	8.43000e+02	3.01911	211.5
844	2.12849e+02	8.44000e+02	3.01875	212.0
845	2.13367e+02	8.45000e+02	3.01839	212.5
846	2.13868e+02	8.46000e+02	3.01804	213.0
847	2.14386e+02	8.47000e+02	3.01769	213.5
848	2.14898e+02	8.48000e+02	3.01734	214.0
849	2.15411e+02	8.49000e+02	3.01701	214.5
850	2.15920e+02	8.50000e+02	3.01667	215.0
851	2.16438e+02	8.51000e+02	3.01633	215.5
852	2.16937e+02	8.52000e+02	3.01601	216.0
853	2.17449e+02	8.53000e+02	3.01567	216.5
854	2.17959e+02	8.54000e+02	3.01532	217.0
855	2.18480e+02	8.55000e+02	3.01497	217.5
856	2.18982e+02	8.56000e+02	3.0146	218.0
857	2.19499e+02	8.57000e+02	3.01424	218.5
858	2.19997e+02	8.58000e+02	3.01388	219.0
859	2.20504e+02	8.59000e+02	3.01351	219.5
860	2.21001e+02	8.60000e+02	3.01314	220.0
861	2.21502e+02	8.61000e+02	3.01278	220.5
862	2.22004e+02	8.62000e+02	3.01243	221.0
863	2.22515e+02	8.63000e+02	3.01207	221.5
864	2.23028e+02	8.64000e+02	3.01173	222.0
865	2.23539e+02	8.65000e+02	3.01139	222.5
866	2.24043e+02	8.66000e+02	3.01105	223.0
867	2.24557e+02	8.67000e+02	3.0107	223.5
868	2.25063e+02	8.68000e+02	3.01036	224.0
869	2.25594e+02	8.69000e+02	3.01001	224.5
870	2.26096e+02	8.70000e+02	3.00966	225.0
871	2.26604e+02	8.71000e+02	3.00931	225.5
872	2.27115e+02	8.72000e+02	3.00895	226.0
873	2.27635e+02	8.73000e+02	3.00858	226.5
874	2.28134e+02	8.74000e+02	3.00822	227.0
875	2.28646e+02	8.75000e+02	3.00785	227.5
876	2.29156e+02	8.76000e+02	3.00746	228.0
877	2.29663e+02	8.77000e+02	3.00707	228.5
878	2.30177e+02	8.78000e+02	3.00668	229.0
879	2.30680e+02	8.79000e+02	3.00629	229.5
880	2.31200e+02	8.80000e+02	3.00588	230.0
881	2.31696e+02	8.81000e+02	3.00549	230.5
882	2.32225e+02	8.82000e+02	3.00512	231.0
883	2.32733e+02	8.83000e+02	3.00474	231.5
884	2.33237e+02	8.84000e+02	3.00438	232.0
885	2.33753e+02	8.85000e+02	3.004	232.5
886	2.34270e+02	8.86000e+02	3.00361	233.0
887	2.34774e+02	8.87000e+02	3.00321	233.5
888	2.35294e+02	8.88000e+02	3.00279	234.0
889	2.35802e+02	8.89000e+02	3.00237	234.5
890	2.36322e+02	8.90000e+02	3.00196	235.0
891	2.36839e+02	8.91000e+02	3.00154	235.5
892	2.37345e+02	8.92000e+02	3.00111	236.0
893	2.37856e+02	8.93000e+02	3.00069	236.5
894	2.38380e+02	8.94000e+02	3.00027	237.0
895	2.38895e+02	8.95000e+02	2.99985	237.5
896	2.39397e+02	8.96000e+02	2.99944	238.0
897	2.39923e+02	8.97000e+02	2.99903	238.5
898	2.40433e+02	8.98000e+02	2.99863	239.0
899	2.40953e+02	8.99000e+02	2.99822	239.5
900	2.41455e+02	9.00000e+02	2.99783	240.0
901	2.41973e+02	9.01000e+02	2.99743	240.5
902	2.42489e+02	9.02000e+02	2.99703	241.0
903	2.42985e+02	9.03000e+02	2.99663	241.5
904	2.43499e+02	9.04000e+02	2.99623	242.0
905	2.44005e+02	9.05000e+02	2.99583	242.5
906	2.44516e+02	9.06000e+02	2.99543	243.0
907	2.45029e+02	9.07000e+02	2.99504	243.5
908	2.45552e+02	9.08000e+02	2.99465	244.0
909	2.46066e+02	9.09000e+02	2.99426	244.5
910	2.46573e+02	9.10000e+02	2.99387	245.0
911	2.47096e+02	9.11000e+02	2.99347	245.5
912	2.47602e+02	9.12000e+02	2.99307	246.0
913	2.48114e+02	9.13000e+02	2.99267	246.5
914	2.48626e+02	9.14000e+02	2.99226	247.0
915	2.49141e+02	9.15000e+02	2.99185	247.5
916	2.49661e+02	9.16000e+02	2.99144	248.0
917	2.50169e+02	9.17000e+02	2.99103	248.5
918	2.50681e+02	9.18000e+02	2.99061	249.0
919	2.51184e+02	9.19000e+02	2.99018	249.5
920	2.51718e+02	9.20000e+02	2.98975	250.0
921	2.52232e+02	9.21000e+02	2.98931	250.5
922	2.52749e+02	9.22000e+02	2.98888	251.0
923	2.53258e+02	9.23000e+02	2.98845	251.5
924	2.53768e+02	9.24000e+02	2.988	252.0
925	2.54292e+02	9.25000e+02	2.98757	252.5
926	2.54788e+02	9.26000e+02	2.98714	253.0
927	2.55302e+02	9.27000e+02	2.98671	253.5
928	2.55806e+02	9.28000e+02	2.98629	254.0
929	2.56335e+02	9.29000e+02	2.98586	254.5
930	2.56846e+02	9.30000e+02	2.98542	255.0
931	2.57390e+02	9.31000e+02	2.98499	255.5
932	2.57892e+02	9.32000e+02	2.98455	256.0
933	2.58420e+02	9.33000e+02	2.98411	256.5
934	2.58935e+02	9.34000e+02	2.98367	257.0
935	2.59437e+02	9.35000e+02	2.98322	257.5
936	2.59951e+02	9.36000e+02	2.98276	258.0
937	2.60472e+02	9.37000e+02	2.98229	258.5
938	2.60970e+02	9.38000e+02	2.98183	259.0
939	2.61484e+02	9.39000e+02	2.98136	259.5
940	2.61998e+02	9.40000e+02	2.98087	260.0
941	2.62483e+02	9.41000e+02	2.98039	260.5
942	2.62994e+02	9.42000e+02	2.9799	261.0
943	2.63513e+02	9.43000e+02	2.97942	261.5
944	2.64023e+02	9.44000e+02	2.97891	262.0
945	2.64530e+02	9.45000e+02	2.97841	262.5
946	2.65037e+02	9.46000e+02	2.97791	263.0
947	2.65531e+02	9.47000e+02	2.9774	263.5
948	2.66025e+02	9.48000e+02	2.97689	264.0
949	2.66526e+02	9.49000e+02	2.9764	264.5
950	2.67023e+02	9.50000e+02	2.97592	265.0
951	2.67529e+02	9.51000e+02	2.97545	265.5
952	2.68029e+02	9.52000e+02	2.975	266.0
953	2.68543e+02	9.53000e+02	2.97454	266.5
954	2.69066e+02	9.54000e+02	2.97409	267.0
955	2.69607e+02	9.55000e+02	2.97363	267.5
956	2.70132e+02	9.56000e+02	2.97319	268.0
957	2.70663e+02	9.57000e+02	2.97276	268.5
958	2.71177e+02	9.58000e+02	2.97232	269.0
959	2.71715e+02	9.59000e+02	2.97189	269.5
960	2.72227e+02	9.60000e+02	2.97147	270.0
961	2.72748e+02	9.61000e+02	2.97103	270.5
962	2.73306e+02	9.62000e+02	2.97058	271.0
963	2.73876e+02	9.63000e+02	2.97013	271.5
964	2.74408e+02	9.64000e+02	2.96966	272.0
965	2.74916e+02	9.65000e+02	2.96918	272.5
966	2.75438e+02	9.66000e+02	2.96869	273.0
967	2.75956e+02	9.67000e+02	2.96819	273.5
968	2.76438e+02	9.68000e+02	2.96764	274.0
969	2.76950e+02	9.69000e+02	2.96707	274.5
970	2.77446e+02	9.70000e+02	2.96646	275.0
971	2.77971e+02	9.71000e+02	2.96584	275.5
972	2.78473e+02	9.72000e+02	2.9651	276.0
973	2.78995e+02	9.73000e+02	2.96437	276.5
974	2.79560e+02	9.74000e+02	2.96362	277.0
975	2.80054e+02	9.75000e+02	2.96286	277.5
976	2.80558e+02	9.76000e+02	2.96201	278.0
977	2.81068e+02	9.77000e+02	2.9612	278.5
978	2.81596e+02	9.78000e+02	2.9604	279.0
979	2.82114e+02	9.79000e+02	2.9596	279.5
980	2.82593e+02	9.80000e+02	2.95881	280.0
981	2.83101e+02	9.81000e+02	2.95804	280.5
982	2.83615e+02	9.82000e+02	2.95729	281.0
983	2.84112e+02	9.83000e+02	2.95655	281.5
984	2.84620e+02	9.84000e+02	2.95586	282.0
985	2.85108e+02	9.85000e+02	2.95515	282.5
986	2.85625e+02	9.86000e+02	2.95443	283.0
987	2.86142e+02	9.87000e+02	2.95372	283.5
988	2.86652e+02	9.88000e+02	2.95302	284.0
989	2.87154e+02	9.89000e+02	2.95229	284.5
990	2.87671e+02	9.90000e+02	2.95154	285.0
991	2.88161e+02	9.91000e+02	2.95078	285.5
992	2.88656e+02	9.92000e+02	2.94994	286.0
993	2.89162e+02	9.93000e+02	2.9491	286.5
994	2.89673e+02	9.94000e+02	2.94825	287.0
995	2.90176e+02	9.95000e+02	2.94737	287.5
996	2.90688e+02	9.96000e+02	2.94643	288.0
997	2.91205e+02	9.97000e+02	2.94552	288.5
998	2.91717e+02	9.98000e+02	2.94462	289.0
999	2.92236e+02	9.99000e+02	2.94373	289.5
1000	2.92728e+02	1.00000e+03	2.94286	290.0
1001	2.93238e+02	1.00100e+03	2.94199	290.5
1002	2.93749e+02	1.00200e+03	2.94113	291.0
1003	2.94252e+02	1.00300e+03	2.94027	291.5
1004	2.94761e+02	1.00400e+03	2.93944	292.0
1005	2.95261e+02	1.00500e+03	2.93859	292.5
1006	2.95772e+02	1.00600e+03	2.93774	293.0
1007	2.96266e+02	1.00700e+03	2.93688	293.5
1008	2.96773e+02	1.00800e+03	2.936	294.0
1009	2.97297e+02	1.00900e+03	2.93511	294.5
1010	2.97806e+02	1.01000e+03	2.93422	295.0
1011	2.98306e+02	1.01100e+03	2.93331	295.5
1012	2.98814e+02	1.01200e+03	2.93236	296.0
1013	2.99328e+02	1.01300e+03	2.93141	296.5
1014	2.99856e+02	1.01400e+03	2.93046	297.0
1015	3.00359e+02	1.01500e+03	2.92949	297.5
1016	3.00843e+02	1.01600e+03	2.92847	298.0
1017	3.01324e+02	1.01700e+03	2.92747	298.5
1018	3.01812e+02	1.01800e+03	2.92647	299.0
1019	3.02319e+02	1.01900e+03	2.92545	299.5
1020	3.02815e+02	1.02000e+03	2.92441	300.0
1021	3.03315e+02	1.02100e+03	2.92336	300.5
1022	3.03813e+02	1.02200e+03	2.92231	301.0
1023	3.04307e+02	1.02300e+03	2.92124	301.5
1024	3.04809e+02	1.02400e+03	2.92013	302.0
1025	3.05282e+02	1.02500e+03	2.91903	302.5
1026	3.05736e+02	1.02600e+03	2.91792	303.0
1027	3.06167e+02	1.02700e+03	2.91679	303.5
1028	3.06604e+02	1.02800e+03	2.91562	304.0
1029	3.07057e+02	1.02900e+03	2.91444	304.5
1030	3.07485e+02	1.03000e+03	2.91324	305.0
1031	3.07928e+02	1.03100e+03	2.91204	305.5
1032	3.08396e+02	1.03200e+03	2.91077	306.0
1033	3.08835e+02	1.03300e+03	2.90952	306.5
1034	3.09279e+02	1.03400e+03	2.90826	307.0
1035	3.09705e+02	1.03500e+03	2.907	307.5
1036	3.10130e+02	1.03600e+03	2.90569	308.0
1037	3.10580e+02	1.03700e+03	2.90438	308.5
1038	3.11022e+02	1.03800e+03	2.90305	309.0
1039	3.11453e+02	1.03900e+03	2.90171	309.5
1040	3.11865e+02	1.04000e+03	2.90031	310.0
1041	3.12302e+02	1.04100e+03	2.89893	310.5
1042	3.12736e+02	1.04200e+03	2.89753	311.0
1043	3.13184e+02	1.04300e+03	2.89612	311.5
1044	3.13632e+02	1.04400e+03	2.89465	312.0
1045	3.14077e+02	1.04500e+03	2.89317	312.5
1046	3.14534e+02	1.04600e+03	2.89167	313.0
1047	3.14977e+02	1.04700e+03	2.89014	313.5
1048	3.15439e+02	1.04800e+03	2.88851	314.0
1049	3.15871e+02	1.04900e+03	2.8869	314.5
1050	3.16328e+02	1.05000e+03	2.88526	315.0
1051	3.16773e+02	1.05100e+03	2.8836	315.5
1052	3.17233e+02	1.05200e+03	2.88183	316.0
1053	3.17704e+02	1.05300e+03	2.88008	316.5
1054	3.18174e+02	1.05400e+03	2.87832	317.0
1055	3.18657e+02	1.05500e+03	2.87655	317.5
1056	3.19144e+02	1.05600e+03	2.87471	318.0
1057	3.19623e+02	1.05700e+03	2.87289	318.5
1058	3.20109e+02	1.05800e+03	2.87106	319.0
1059	3.20601e+02	1.05900e+03	2.86923	319.5
1060	3.21088e+02	1.06000e+03	2.86735	320.0
1061	3.21552e+02	1.06100e+03	2.86548	320.5
1062	3.22035e+02	1.06200e+03	2.8636	321.0
1063	3.22527e+02	1.06300e+03	2.86171	321.5
1064	3.23021e+02	1.06400e+03	2.85981	322.0
1065	3.23496e+02	1.06500e+03	2.85791	322.5
1066	3.23995e+02	1.06600e+03	2.85603	323.0
1067	3.24488e+02	1.06700e+03	2.85416	323.5
1068	3.25000e+02	1.06800e+03	2.8523	324.0
1069	3.25503e+02	1.06900e+03	2.85045	324.5
1070	3.25993e+02	1.07000e+03	2.8486	325.0
1071	3.26495e+02	1.07100e+03	2.84675	325.5
1072	3.26991e+02	1.07200e+03	2.84492	326.0
1073	3.27504e+02	1.07300e+03	2.84307	326.5
1074	3.28004e+02	1.07400e+03	2.84122	327.0
1075	3.28506e+02	1.07500e+03	2.83936	327.5
1076	3.29009e+02	1.07600e+03	2.83748	328.0
1077	3.29504e+02	1.07700e+03	2.83559	328.5
1078	3.30003e+02	1.07800e+03	2.83367	329.0
1079	3.30524e+02	1.07900e+03	2.83175	329.5
1080	3.31018e+02	1.08000e+03	2.82976	330.0
1081	3.31508e+02	1.08100e+03	2.82777	330.5
1082	3.32009e+02	1.08200e+03	2.82577	331.0
1083	3.32519e+02	1.08300e+03	2.82376	331.5
1084	3.33021e+02	1.08400e+03	2.82168	332.0
1085	3.33519e+02	1.08500e+03	2.8196	332.5
1086	3.34018e+02	1.08600e+03	2.8175	333.0
1087	3.34527e+02	1.08700e+03	2.81538	333.5
1088	3.35038e+02	1.08800e+03	2.81315	334.0
1089	3.35534e+02	1.08900e+03	2.81091	334.5
1090	3.36041e+02	1.09000e+03	2.80863	335.0
1091	3.36561e+02	1.09100e+03	2.80631	335.5
1092	3.37079e+02	1.09200e+03	2.80381	336.0
1093	3.37584e+02	1.09300e+03	2.80133	336.5
1094	3.38263e+02	1.09400e+03	2.79881	337.0
1095	3.38763e+02	1.09500e+03	2.79624	337.5
1096	3.39240e+02	1.09600e+03	2.79348	338.0
1097	3.39732e+02	1.09700e+03	2.79074	338.5
1098	3.40221e+02	1.09800e+03	2.78795	339.0
1099	3.40700e+02	1.09900e+03	2.78513	339.5
1100	3.41222e+02	1.10000e+03	2.78209	340.0
1101	3.41791e+02	1.10100e+03	2.77908	340.5
1102	3.42350e+02	1.10200e+03	2.77601	341.0
1103	3.42852e+02	1.10300e+03	2.7729	341.5
1104	3.43325e+02	1.10400e+03	2.76953	342.0
1105	3.43801e+02	1.10500e+03	2.76617	342.5
1106	3.44289e+02	1.10600e+03	2.76274	343.0
1107	3.44787e+02	1.10700e+03	2.75925	343.5
1108	3.45296e+02	1.10800e+03	2.75544	344.0
1109	3.45818e+02	1.10900e+03	2.75165	344.5
1110	3.46336e+02	1.11000e+03	2.74779	345.0
1111	3.46850e+02	1.11100e+03	2.74384	345.5
1112	3.47352e+02	1.11200e+03	2.73951	346.0
1113	3.47867e+02	1.11300e+03	2.7352	346.5
1114	3.48357e+02	1.11400e+03	2.73078	347.0
1115	3.48852e+02	1.11500e+03	2.72627	347.5
1116	3.49352e+02	1.11600e+03	2.72129	348.0
1117	3.49844e+02	1.11700e+03	2.71638	348.5
1118	3.50348e+02	1.11800e+03	2.71138	349.0
1119	3.50868e+02	1.11900e+03	2.70628	349.5
1120	3.51374e+02	1.12000e+03	2.70069	350.0
1121	3.51885e+02	1.12100e+03	2.69514	350.5
1122	3.52400e+02	1.12200e+03	2.68947	351.0
1123	3.52891e+02	1.12300e+03	2.68367	351.5
1124	3.53370e+02	1.12400e+03	2.67731	352.0
1125	3.53849e+02	1.12500e+03	2.67099	352.5
1126	3.54330e+02	1.12600e+03	2.66452	353.0
1127	3.54824e+02	1.12700e+03	2.65791	353.5
1128	3.55319e+02	1.12800e+03	2.65061	354.0
1129	3.55819e+02	1.12900e+03	2.64337	354.5
1130	3.56304e+02	1.13000e+03	2.63593	355.0
1131	3.56784e+02	1.13100e+03	2.62833	355.5
1132	3.57280e+02	1.13200e+03	2.61991	356.0
1133	3.57765e+02	1.13300e+03	2.61157	356.5
1134	3.58264e+02	1.13400e+03	2.60302	357.0
1135	3.58751e+02	1.13500e+03	2.5943	357.5
1136	3.59233e+02	1.13600e+03	2.58462	358.0
1137	3.59729e+02	1.13700e+03	2.57504	358.5
1138	3.60224e+02	1.13800e+03	2.5652	359.0
1139	3.60717e+02	1.13900e+03	2.55514	359.5
1140	3.61209e+02	1.14000e+03	2.54396	360.0
1141	3.61725e+02	1.14100e+03	2.53286	360.5
1142	3.62214e+02	1.14200e+03	2.52145	361.0
1143	3.62727e+02	1.14300e+03	2.50979	361.5
1144	3.63223e+02	1.14400e+03	2.49678	362.0
1145	3.63730e+02	1.14500e+03	2.48393	362.5
1146	3.64226e+02	1.14600e+03	2.47078	363.0
1147	3.64719e+02	1.14700e+03	2.45737	363.5
1148	3.65202e+02	1.14800e+03	2.44259	364.0
1149	3.65698e+02	1.14900e+03	2.42804	364.5
1150	3.66183e+02	1.15000e+03	2.41325	365.0
1151	3.66695e+02	1.15100e+03	2.39823	365.5
1152	3.67193e+02	1.15200e+03	2.382	366.0
1153	3.67684e+02	1.15300e+03	2.36596	366.5
1154	3.68164e+02	1.15400e+03	2.34966	367.0
1155	3.68698e+02	1.15500e+03	2.33312	367.5
1156	3.69193e+02	1.15600e+03	2.31533	368.0
1157	3.69680e+02	1.15700e+03	2.29761	368.5
1158	3.70174e+02	1.15800e+03	2.27957	369.0
1159	3.70668e+02	1.15900e+03	2.26125	369.5
1160	3.71171e+02	1.16000e+03	2.24149	370.0
1161	3.71667e+02	1.16100e+03	2.22197	370.5
1162	3.72165e+02	1.16200e+03	2.2022	371.0
1163	3.72671e+02	1.16300e+03	2.18218	371.5
1164	3.73177e+02	1.16400e+03	2.1609	372.0
1165	3.73680e+02	1.16500e+03	2.13983	372.5
1166	3.74192e+02	1.16600e+03	2.11854	373.0
1167	3.74721e+02	1.16700e+03	2.09705	373.5
1168	3.75222e+02	1.16800e+03	2.0745	374.0
1169	3.75750e+02	1.16900e+03	2.05218	374.5
1170	3.76247e+02	1.17000e+03	2.02971	375.0
1171	3.76744e+02	1.17100e+03	2.00711	375.5
1172	3.77260e+02	1.17200e+03	1.98375	376.0
1173	3.77758e+02	1.17300e+03	1.96057	376.5
1174	3.78269e+02	1.17400e+03	1.93731	377.0
1175	3.78771e+02	1.17500e+03	1.91395	377.5
1176	3.79265e+02	1.17600e+03	1.89013	378.0
1177	3.79758e+02	1.17700e+03	1.8664	378.5
1178	3.80241e+02	1.17800e+03	1.84262	379.0
1179	3.80723e+02	1.17900e+03	1.81877	379.5
1180	3.81226e+02	1.18000e+03	1.7946	380.0
1181	3.81721e+02	1.18100e+03	1.77049	380.5
1182	3.82217e+02	1.18200e+03	1.74634	381.0
1183	3.82702e+02	1.18300e+03	1.72214	381.5
1184	3.83203e+02	1.18400e+03	1.69768	382.0
1185	3.83685e+02	1.18500e+03	1.67325	382.5
1186	3.84180e+02	1.18600e+03	1.64874	383.0
1187	3.84700e+02	1.18700e+03	1.62417	383.5
1188	3.85199e+02	1.18800e+03	1.59927	384.0
1189	3.85704e+02	1.18900e+03	1.57438	384.5
1190	3.86195e+02	1.19000e+03	1.54939	385.0
1191	3.86709e+02	1.19100e+03	1.52432	385.5
1192	3.87214e+02	1.19200e+03	1.49882	386.0
1193	3.87737e+02	1.19300e+03	1.4734	386.5
1194	3.88236e+02	1.19400e+03	1.44791	387.0
1195	3.88753e+02	1.19500e+03	1.42235	387.5
1196	3.89261e+02	1.19600e+03	1.39646	388.0
1197	3.89761e+02	1.19700e+03	1.37067	388.5
1198	3.90264e+02	1.19800e+03	1.34485	389.0
1199	3.90759e+02	1.19900e+03	1.31899	389.5
1200	3.91272e+02	1.20000e+03	1.29297	390.0
1201	3.91774e+02	1.20100e+03	1.26702	390.5
1202	3.92270e+02	1.20200e+03	1.2411	391.0
1203	3.92778e+02	1.20300e+03	1.21519	391.5
1204	3.93281e+02	1.20400e+03	1.18932	392.0
1205	3.93771e+02	1.20500e+03	1.16349	392.5
1206	3.94248e+02	1.20600e+03	1.1377	393.0
1207	3.94752e+02	1.20700e+03	1.11194	393.5
1208	3.95245e+02	1.20800e+03	1.08629	394.0
1209	3.95729e+02	1.20900e+03	1.06057	394.5
1210	3.96226e+02	1.21000e+03	1.03481	395.0
1211	3.96741e+02	1.21100e+03	1.00904	395.5
1212	3.97230e+02	1.21200e+03	0.983127	396.0
1213	3.97753e+02	1.21300e+03	0.957131	396.5
1214	3.98266e+02	1.21400e+03	0.931004	397.0
1215	3.98770e+02	1.21500e+03	0.904772	397.5
1216	3.99270e+02	1.21600e+03	0.878072	398.0
1217	3.99765e+02	1.21700e+03	0.851396	398.5
1218	4.00281e+02	1.21800e+03	0.824645	399.0
1219	4.00777e+02	1.21900e+03	0.797843	399.5
1220	4.01273e+02	1.22000e+03	0.770725	400.0
1221	4.01773e+02	1.22100e+03	0.743903	400.5
1222	4.02259e+02	1.22200e+03	0.717263	401.0
1223	4.02753e+02	1.22300e+03	0.690746	401.5
1224	4.03270e+02	1.22400e+03	0.664815	402.0
1225	4.03799e+02	1.22500e+03	0.639028	402.5
1226	4.04327e+02	1.22600e+03	0.613561	403.0
1227	4.04845e+02	1.22700e+03	0.588349	403.5
1228	4.05371e+02	1.22800e+03	0.564455	404.0
1229	4.05892e+02	1.22900e+03	0.540515	404.5
1230	4.06423e+02	1.23000e+03	0.516973	405.0
1231	4.06928e+02	1.23100e+03	0.493776	405.5
1232	4.07440e+02	1.23200e+03	0.472356	406.0
1233	4.07961e+02	1.23300e+03	0.450796	406.5
1234	4.08500e+02	1.23400e+03	0.429689	407.0
1235	4.09019e+02	1.23500e+03	0.408979	407.5
1236	4.09536e+02	1.23600e+03	0.390321	408.0
1237	4.10061e+02	1.23700e+03	0.371406	408.5
1238	4.10554e+02	1.23800e+03	0.352936	409.0
1239	4.11058e+02	1.23900e+03	0.334872	409.5
1240	4.11571e+02	1.24000e+03	0.3189	410.0
1241	4.12082e+02	1.24100e+03	0.302653	410.5
1242	4.12568e+02	1.24200e+03	0.286843	411.0
1243	4.13067e+02	1.24300e+03	0.271435	411.5
1244	4.13563e+02	1.24400e+03	0.258078	412.0
1245	4.14066e+02	1.24500e+03	0.244425	412.5
1246	4.14568e+02	1.24600e+03	0.231174	413.0
1247	4.15078e+02	1.24700e+03	0.218298	413.5
1248	4.15581e+02	1.24800e+03	0.207341	414.0
1249	4.16079e+02	1.24900e+03	0.196071	414.5
1250	4.16577e+02	1.25000e+03	0.185151	415.0
1251	4.17063e+02	1.25100e+03	0.174562	415.5
1252	4.17584e+02	1.25200e+03	0.165675	416.0
1253	4.18083e+02	1.25300e+03	0.156495	416.5
1254	4.18607e+02	1.25400e+03	0.147608	417.0
1255	4.19100e+02	1.25500e+03	0.139004	417.5
1256	4.19585e+02	1.25600e+03	0.13186	418.0
1257	4.20081e+02	1.25700e+03	0.124458	418.5
1258	4.20579e+02	1.25800e+03	0.117305	419.0
1259	4.21078e+02	1.25900e+03	0.110396	419.5
1260	4.21558e+02	1.26000e+03	0.104724	420.0
1261	4.22040e+02	1.26100e+03	0.0988327	420.5
1262	4.22525e+02	1.26200e+03	0.0931476	421.0
1263	4.23029e+02	1.26300e+03	0.0876646	421.5
1264	4.23520e+02	1.26400e+03	0.0832262	422.0
1265	4.24025e+02	1.26500e+03	0.0785995	422.5
1266	4.24531e+02	1.26600e+03	0.074145	423.0
1267	4.25028e+02	1.26700e+03	0.0698597	423.5
1268	4.25531e+02	1.26800e+03	0.0664435	424.0
1269	4.26048e+02	1.26900e+03	0.0628701	424.5
1270	4.26554e+02	1.27000e+03	0.0594353	425.0
1271	4.27057e+02	1.27100e+03	0.0561367	425.5
1272	4.27569e+02	1.27200e+03	0.0535461	426.0
1273	4.28095e+02	1.27300e+03	0.0508152	426.5
1274	4.28602e+02	1.27400e+03	0.0481909	427.0
1275	4.29123e+02	1.27500e+03	0.0456737	427.5
1276	4.29630e+02	1.27600e+03	0.0437061	428.0
1277	4.30142e+02	1.27700e+03	0.0416327	428.5
1278	4.30650e+02	1.27800e+03	0.0396388	429.0
1279	4.31166e+02	1.27900e+03	0.0377245	429.5
1280	4.31671e+02	1.28000e+03	0.0362288	430.0
1281	4.32162e+02	1.28100e+03	0.034642	430.5
1282	4.32664e+02	1.28200e+03	0.0331133	431.0
1283	4.33156e+02	1.28300e+03	0.0316459	431.5
1284	4.33649e+02	1.28400e+03	0.030481	432.0
1285	4.34155e+02	1.28500e+03	0.0292578	432.5
1286	4.34647e+02	1.28600e+03	0.028079	433.0
1287	4.35145e+02	1.28700e+03	0.0269434	433.5
1288	4.35637e+02	1.28800e+03	0.026034	434.0
1289	4.36132e+02	1.28900e+03	0.025072	434.5
1290	4.36642e+02	1.29000e+03	0.0241412	435.0
1291	4.37143e+02	1.29100e+03	0.0232443	435.5
1292	4.37633e+02	1.29200e+03	0.0225138	436.0
1293	4.38122e+02	1.29300e+03	0.0217599	436.5
1294	4.38623e+02	1.29400e+03	0.0210353	437.0
1295	4.39120e+02	1.29500e+03	0.0203366	437.5
1296	4.39617e+02	1.29600e+03	0.0197764	438.0
1297	4.40111e+02	1.29700e+03	0.0191784	438.5
1298	4.40607e+02	1.29800e+03	0.0185956	439.0
1299	4.41097e+02	1.29900e+03	0.0180315	439.5
1300	4.41581e+02	1.30000e+03	0.0175622	440.0
1301	4.42071e+02	1.30100e+03	0.0170844	440.5
1302	4.42572e+02	1.30200e+03	0.0166274	441.0
1303	4.43067e+02	1.30300e+03	0.0161878	441.5
1304	4.43549e+02	1.30400e+03	0.0158317	442.0
1305	4.44042e+02	1.30500e+03	0.0154491	442.5
1306	4.44530e+02	1.30600e+03	0.0150732	443.0
1307	4.45018e+02	1.30700e+03	0.0147073	443.5
1308	4.45505e+02	1.30800e+03	0.0143934	444.0
1309	4.45993e+02	1.30900e+03	0.0140773	444.5
1310	4.46474e+02	1.31000e+03	0.0137766	445.0
1311	4.46957e+02	1.31100e+03	0.0134883	445.5
1312	4.47443e+02	1.31200e+03	0.0132499	446.0
1313	4.47933e+02	1.31300e+03	0.0129934	446.5
1314	4.48434e+02	1.31400e+03	0.0127366	447.0
1315	4.48910e+02	1.31500e+03	0.0124829	447.5
1316	4.49385e+02	1.31600e+03	0.012249	448.0
1317	4.49874e+02	1.31700e+03	0.0120103	448.5
1318	4.50373e+02	1.31800e+03	0.0117795	449.0
1319	4.50860e+02	1.31900e+03	0.0115558	449.5
1320	4.51338e+02	1.32000e+03	0.0113583	450.0
1321	4.51823e+02	1.32100e+03	0.0111708	450.5
1322	4.52296e+02	1.32200e+03	0.0109962	451.0
1323	4.52770e+02	1.32300e+03	0.0108301	451.5
1324	4.53247e+02	1.32400e+03	0.0107189	452.0
1325	4.53713e+02	1.32500e+03	0.0105913	452.5
1326	4.54189e+02	1.32600e+03	0.0104644	453.0
1327	4.54673e+02	1.32700e+03	0.0103404	453.5
1328	4.55164e+02	1.32800e+03	0.0102434	454.0
1329	4.55634e+02	1.32900e+03	0.0101403	454.5
1330	4.56106e+02	1.33000e+03	0.0100425	455.0
1331	4.56580e+02	1.33100e+03	0.00995222	455.5
1332	4.57074e+02	1.33200e+03	0.00989011	456.0
1333	4.57544e+02	1.33300e+03	0.0098322	456.5
1334	4.58020e+02	1.33400e+03	0.00978562	457.0
1335	4.58501e+02	1.33500e+03	0.00974715	457.5
1336	4.58979e+02	1.33600e+03	0.00974768	458.0
1337	4.59467e+02	1.33700e+03	0.00972959	458.5
1338	4.59951e+02	1.33800e+03	0.00970564	459.0
1339	4.60445e+02	1.33900e+03	0.00967927	459.5
1340	4.60937e+02	1.34000e+03	0.00965261	460.0
1341	4.61427e+02	1.34100e+03	0.00962284	460.5
1342	4.61924e+02	1.34200e+03	0.00959436	461.0
1343	4.62412e+02	1.34300e+03	0.00956801	461.5
1344	4.62898e+02	1.34400e+03	0.00953952	462.0
1345	4.63391e+02	1.34500e+03	0.00951873	462.5
1346	4.63884e+02	1.34600e+03	0.00949936	463.0
1347	4.64368e+02	1.34700e+03	0.0094793	463.5
1348	4.64849e+02	1.34800e+03	0.0094697	464.0
1349	4.65332e+02	1.34900e+03	0.0094526	464.5
1350	4.65826e+02	1.35000e+03	0.00943607	465.0
1351	4.66320e+02	1.35100e+03	0.00942156	465.5
1352	4.66796e+02	1.35200e+03	0.00940959	466.0
1353	4.67291e+02	1.35300e+03	0.00940454	466.5
1354	4.67780e+02	1.35400e+03	0.00940268	467.0
1355	4.68269e+02	1.35500e+03	0.00940188	467.5
1356	4.68761e+02	1.35600e+03	0.00941718	468.0
1357	4.69248e+02	1.35700e+03	0.00942545	468.5
1358	4.69721e+02	1.35800e+03	0.00943517	469.0
1359	4.70199e+02	1.35900e+03	0.0094475	469.5
1360	4.70682e+02	1.36000e+03	0.00946538	470.0
1361	4.71170e+02	1.36100e+03	0.00948525	470.5
1362	4.71645e+02	1.36200e+03	0.00950593	471.0
1363	4.72138e+02	1.36300e+03	0.00952598	471.5
1364	4.72626e+02	1.36400e+03	0.00954221	472.0
1365	4.73117e+02	1.36500e+03	0.00954542	472.5
1366	4.73601e+02	1.36600e+03	0.00953829	473.0
1367	4.74090e+02	1.36700e+03	0.00952504	473.5
1368	4.74577e+02	1.36800e+03	0.00948033	474.0
1369	4.75069e+02	1.36900e+03	0.00944436	474.5
1370	4.75558e+02	1.37000e+03	0.00940346	475.0
1371	4.76044e+02	1.37100e+03	0.00935604	475.5
1372	4.76538e+02	1.37200e+03	0.0092806	476.0
1373	4.77011e+02	1.37300e+03	0.0092085	476.5
1374	4.77497e+02	1.37400e+03	0.00913636	477.0
1375	4.77994e+02	1.37500e+03	0.00906565	477.5
1376	4.78474e+02	1.37600e+03	0.00899043	478.0
1377	4.78957e+02	1.37700e+03	0.00893529	478.5
1378	4.79448e+02	1.37800e+03	0.00889279	479.0
1379	4.79929e+02	1.37900e+03	0.00885744	479.5
1380	4.80423e+02	1.38000e+03	0.0088633	480.0
1381	4.80892e+02	1.38100e+03	0.00885429	480.5
1382	4.81378e+02	1.38200e+03	0.0088434	481.0
1383	4.81861e+02	1.38300e+03	0.00883277	481.5
1384	4.82364e+02	1.38400e+03	0.00883196	482.0
1385	4.82856e+02	1.38500e+03	0.00882397	482.5
1386	4.83347e+02	1.38600e+03	0.00881407	483.0
1387	4.83842e+02	1.38700e+03	0.00880318	483.5
1388	4.84339e+02	1.38800e+03	0.0087799	484.0
1389	4.84856e+02	1.38900e+03	0.00875674	484.5
1390	4.85349e+02	1.39000e+03	0.00873167	485.0
1391	4.85844e+02	1.39100e+03	0.0087059	485.5
1392	4.86330e+02	1.39200e+03	0.00867635	486.0
1393	4.86826e+02	1.39300e+03	0.00865698	486.5
1394	4.87325e+02	1.39400e+03	0.00864484	487.0
1395	4.87828e+02	1.39500e+03	0.00863606	487.5
1396	4.88330e+02	1.39600e+03	0.00863796	488.0
1397	4.88819e+02	1.39700e+03	0.00863044	488.5
1398	4.89300e+02	1.39800e+03	0.0086174	489.0
1399	4.89803e+02	1.39900e+03	0.00860057	489.5
1400	4.90290e+02	1.40000e+03	0.00857778	490.0
1401	4.90776e+02	1.40100e+03	0.00855936	490.5
1402	4.91280e+02	1.40200e+03	0.00854435	491.0
1403	4.91768e+02	1.40300e+03	0.00853098	491.5
1404	4.92253e+02	1.40400e+03	0.00851468	492.0
1405	4.92748e+02	1.40500e+03	0.00849873	492.5
1406	4.93243e+02	1.40600e+03	0.00848109	493.0
1407	4.93727e+02	1.40700e+03	0.00846266	493.5
1408	4.94223e+02	1.40800e+03	0.00844966	494.0
1409	4.94724e+02	1.40900e+03	0.00843998	494.5
1410	4.95227e+02	1.41000e+03	0.00843703	495.0
1411	4.95715e+02	1.41100e+03	0.00843896	495.5
1412	4.96211e+02	1.41200e+03	0.00845295	496.0
1413	4.96692e+02	1.41300e+03	0.00846205	496.5
1414	4.97172e+02	1.41400e+03	0.0084662	497.0
1415	4.97657e+02	1.41500e+03	0.00846681	497.5
1416	4.98141e+02	1.41600e+03	0.00846683	498.0
1417	4.98618e+02	1.41700e+03	0.00846176	498.5
1418	4.99106e+02	1.41800e+03	0.00845622	499.0
1419	4.99594e+02	1.41900e+03	0.00845125	499.5
1420	5.00077e+02	1.42000e+03	0.00843579	500.0
1421	5.00555e+02	1.42100e+03	0.00842714	500.5
1422	5.01049e+02	1.42200e+03	0.00841531	501.0
1423	5.01542e+02	1.42300e+03	0.00839924	501.5
1424	5.02035e+02	1.42400e+03	0.00837863	502.0
1425	5.02522e+02	1.42500e+03	0.0083512	502.5
1426	5.03025e+02	1.42600e+03	0.00832113	503.0
1427	5.03536e+02	1.42700e+03	0.00829069	503.5
1428	5.04024e+02	1.42800e+03	0.00824499	504.0
1429	5.04510e+02	1.42900e+03	0.0082106	504.5
1430	5.04995e+02	1.43000e+03	0.00817731	505.0
1431	5.05487e+02	1.43100e+03	0.008143	505.5
1432	5.05988e+02	1.43200e+03	0.00811412	506.0
1433	5.06482e+02	1.43300e+03	0.00808204	506.5
1434	5.06962e+02	1.43400e+03	0.00805332	507.0
1435	5.07446e+02	1.43500e+03	0.00802841	507.5
1436	5.07925e+02	1.43600e+03	0.00801213	508.0
1437	5.08415e+02	1.43700e+03	0.0080004	508.5
1438	5.08916e+02	1.43800e+03	0.0079892	509.0
1439	5.09404e+02	1.43900e+03	0.00797695	509.5
1440	5.09894e+02	1.44000e+03	0.00796987	510.0
1441	5.10382e+02	1.44100e+03	0.00794731	510.5
1442	5.10881e+02	1.44200e+03	0.00792185	511.0
1443	5.11367e+02	1.44300e+03	0.00789789	511.5
1444	5.11859e+02	1.44400e+03	0.00786591	512.0
1445	5.12342e+02	1.44500e+03	0.00785391	512.5
1446	5.12839e+02	1.44600e+03	0.00785252	513.0
1447	5.13334e+02	1.44700e+03	0.00785637	513.5
1448	5.13821e+02	1.44800e+03	0.00789346	514.0
1449	5.14308e+02	1.44900e+03	0.00791509	514.5
1450	5.14779e+02	1.45000e+03	0.00793281	515.0
1451	5.15252e+02	1.45100e+03	0.00794915	515.5
1452	5.15737e+02	1.45200e+03	0.007962	516.0
1453	5.16233e+02	1.45300e+03	0.00796921	516.5
1454	5.16724e+02	1.45400e+03	0.00797138	517.0
1455	5.17229e+02	1.45500e+03	0.00797019	517.5
1456	5.17734e+02	1.45600e+03	0.00794768	518.0
1457	5.18234e+02	1.45700e+03	0.00793006	518.5
1458	5.18718e+02	1.45800e+03	0.00791119	519.0
1459	5.19197e+02	1.45900e+03	0.00789111	519.5
1460	5.19685e+02	1.46000e+03	0.00786135	520.0
1461	5.20174e+02	1.46100e+03	0.00783887	520.5
1462	5.20672e+02	1.46200e+03	0.00781978	521.0
1463	5.21151e+02	1.46300e+03	0.00780226	521.5
1464	5.21643e+02	1.46400e+03	0.00779413	522.0
1465	5.22128e+02	1.46500e+03	0.00778616	522.5
1466	5.22627e+02	1.46600e+03	0.00778029	523.0
1467	5.23107e+02	1.46700e+03	0.00777642	523.5
1468	5.23578e+02	1.46800e+03	0.00778887	524.0
1469	5.24061e+02	1.46900e+03	0.00779886	524.5
1470	5.24554e+02	1.47000e+03	0.00780953	525.0
1471	5.25033e+02	1.47100e+03	0.00782025	525.5
1472	5.25526e+02	1.47200e+03	0.00783082	526.0
1473	5.26020e+02	1.47300e+03	0.00783018	526.5
1474	5.26517e+02	1.47400e+03	0.00782107	527.0
1475	5.26998e+02	1.47500e+03	0.00780717	527.5
1476	5.27479e+02	1.47600e+03	0.00776853	528.0
1477	5.27963e+02	1.47700e+03	0.00773804	528.5
1478	5.28461e+02	1.47800e+03	0.00770922	529.0
1479	5.28940e+02	1.47900e+03	0.00768121	529.5
1480	5.29444e+02	1.48000e+03	0.00765174	530.0
1481	5.29933e+02	1.48100e+03	0.0076301	530.5
1482	5.30417e+02	1.48200e+03	0.00761121	531.0
1483	5.30907e+02	1.48300e+03	0.00759347	531.5
1484	5.31427e+02	1.48400e+03	0.00759462	532.0
1485	5.31938e+02	1.48500e+03	0.00759298	532.5
1486	5.32443e+02	1.48600e+03	0.00759495	533.0
1487	5.32952e+02	1.48700e+03	0.00759987	533.5
1488	5.33455e+02	1.48800e+03	0.00761396	534.0
1489	5.33948e+02	1.48900e+03	0.00762075	534.5
1490	5.34445e+02	1.49000e+03	0.00762196	535.0
1491	5.34928e+02	1.49100e+03	0.00761951	535.5
1492	5.35429e+02	1.49200e+03	0.00760808	536.0
1493	5.35922e+02	1.49300e+03	0.00759617	536.5
1494	5.36428e+02	1.49400e+03	0.00758383	537.0
1495	5.36933e+02	1.49500e+03	0.00757077	537.5
1496	5.37439e+02	1.49600e+03	0.00754614	538.0
1497	5.37947e+02	1.49700e+03	0.00752973	538.5
1498	5.38459e+02	1.49800e+03	0.00751555	539.0
1499	5.38979e+02	1.49900e+03	0.00750199	539.5
1500	5.39481e+02	1.50000e+03	0.00749672	540.0
1501	5.39994e+02	1.50100e+03	0.00749247	540.5
1502	5.40509e+02	1.50200e+03	0.00749363	541.0
1503	5.40988e+02	1.50300e+03	0.00749895	541.5
1504	5.41480e+02	1.50400e+03	0.00751831	542.0
1505	5.41994e+02	1.50500e+03	0.00753436	542.5
1506	5.42506e+02	1.50600e+03	0.0075474	543.0
1507	5.43021e+02	1.50700e+03	0.00755766	543.5
1508	5.43543e+02	1.50800e+03	0.00756565	544.0
1509	5.44027e+02	1.50900e+03	0.0075637	544.5
1510	5.44513e+02	1.51000e+03	0.00755629	545.0
1511	5.45001e+02	1.51100e+03	0.00754675	545.5
1512	5.45487e+02	1.51200e+03	0.00751651	546.0
1513	5.45980e+02	1.51300e+03	0.00749724	546.5
1514	5.46479e+02	1.51400e+03	0.00747674	547.0
1515	5.46971e+02	1.51500e+03	0.00745274	547.5
1516	5.47472e+02	1.51600e+03	0.00742585	548.0
1517	5.47977e+02	1.51700e+03	0.00739849	548.5
1518	5.48475e+02	1.51800e+03	0.00737516	549.0
1519	5.48970e+02	1.51900e+03	0.00735634	549.5
1520	5.49464e+02	1.52000e+03	0.0073471	550.0
1521	5.49969e+02	1.52100e+03	0.00734893	550.5
1522	5.50474e+02	1.52200e+03	0.00735792	551.0
1523	5.50988e+02	1.52300e+03	0.00737005	551.5
1524	5.51508e+02	1.52400e+03	0.00741241	552.0
1525	5.52013e+02	1.52500e+03	0.00744029	552.5
1526	5.52524e+02	1.52600e+03	0.00746686	553.0
1527	5.53039e+02	1.52700e+03	0.00749446	553.5
1528	5.53560e+02	1.52800e+03	0.00752215	554.0
1529	5.54075e+02	1.52900e+03	0.00754883	554.5
1530	5.54598e+02	1.53000e+03	0.00757283	555.0
1531	5.55159e+02	1.53100e+03	0.00759415	555.5
1532	5.55742e+02	1.53200e+03	0.00760547	556.0
1533	5.56301e+02	1.53300e+03	0.00761279	556.5
1534	5.56986e+02	1.53400e+03	0.00761581	557.0
1535	5.57629e+02	1.53500e+03	0.00761621	557.5
1536	5.58345e+02	1.53600e+03	0.00759819	558.0
1537	5.59258e+02	1.53700e+03	0.00758886	558.5
1538	5.59684e+02	1.53800e+03	0.00758051	559.0
1539	5.60238e+02	1.53900e+03	0.00757091	559.5
1540	5.60685e+02	1.54000e+03	0.00755627	560.0
1541	5.62930e+02	1.54100e+03	0.00754208	560.5
1542	5.63371e+02	1.54200e+03	0.00752826	561.0
1543	5.63680e+02	1.54300e+03	0.00751513	561.5
1544	5.63988e+02	1.54400e+03	0.00750084	562.0
1545	5.64508e+02	1.54500e+03	0.00748913	562.5
1546	5.64959e+02	1.54600e+03	0.007477	563.0
1547	5.65422e+02	1.54700e+03	0.00746354	563.5
1548	5.65887e+02	1.54800e+03	0.00744756	564.0
1549	5.66379e+02	1.54900e+03	0.00742666	564.5
1550	5.66851e+02	1.55000e+03	0.00740429	565.0
1551	5.67303e+02	1.55100e+03	0.00738205	565.5
1552	5.67727e+02	1.55200e+03	0.0073552	566.0
1553	5.68190e+02	1.55300e+03	0.00733892	566.5
1554	5.68671e+02	1.55400e+03	0.00732962	567.0
1555	5.69148e+02	1.55500e+03	0.00732413	567.5
1556	5.69658e+02	1.55600e+03	0.00733487	568.0
1557	5.70143e+02	1.55700e+03	0.00733791	568.5
1558	5.70647e+02	1.55800e+03	0.00734042	569.0
1559	5.71167e+02	1.55900e+03	0.00734385	569.5
1560	5.71655e+02	1.56000e+03	0.00735169	570.0
1561	5.72118e+02	1.56100e+03	0.00735928	570.5
1562	5.72605e+02	1.56200e+03	0.00736906	571.0
1563	5.73061e+02	1.56300e+03	0.00738064	571.5
1564	5.73494e+02	1.56400e+03	0.00739602	572.0
1565	5.73940e+02	1.56500e+03	0.00740807	572.5
1566	5.74417e+02	1.56600e+03	0.00741685	573.0
1567	5.74898e+02	1.56700e+03	0.00742369	573.5
1568	5.75357e+02	1.56800e+03	0.00742841	574.0
1569	5.75820e+02	1.56900e+03	0.00743208	574.5
1570	5.76292e+02	1.57000e+03	0.00743602	575.0
1571	5.76763e+02	1.57100e+03	0.00744071	575.5
1572	5.77224e+02	1.57200e+03	0.00744141	576.0
1573	5.77702e+02	1.57300e+03	0.00744483	576.5
1574	5.78191e+02	1.57400e+03	0.00744771	577.0
1575	5.78701e+02	1.57500e+03	0.00744988	577.5
1576	5.79181e+02	1.57600e+03	0.00745468	578.0
1577	5.79678e+02	1.57700e+03	0.00745925	578.5
1578	5.80168e+02	1.57800e+03	0.007465	579.0
1579	5.80649e+02	1.57900e+03	0.00747126	579.5
1580	5.81107e+02	1.58000e+03	0.00747596	580.0
1581	5.81575e+02	1.58100e+03	0.00747891	580.5
1582	5.82044e+02	1.58200e+03	0.00747924	581.0
1583	5.82517e+02	1.58300e+03	0.007478	581.5
1584	5.82993e+02	1.58400e+03	0.00747406	582.0
1585	5.83501e+02	1.58500e+03	0.0074723	582.5
1586	5.83984e+02	1.58600e+03	0.0074715	583.0
1587	5.84465e+02	1.58700e+03	0.00747076	583.5
1588	5.84943e+02	1.58800e+03	0.00746699	584.0
1589	5.85401e+02	1.58900e+03	0.00746055	584.5
1590	5.85868e+02	1.59000e+03	0.00744955	585.0
1591	5.86357e+02	1.59100e+03	0.0074344	585.5
1592	5.86821e+02	1.59200e+03	0.00740937	586.0
1593	5.87310e+02	1.59300e+03	0.00739068	586.5
1594	5.87789e+02	1.59400e+03	0.00737863	587.0
1595	5.88256e+02	1.59500e+03	0.0073717	587.5
1596	5.88738e+02	1.59600e+03	0.00737832	588.0
1597	5.89230e+02	1.59700e+03	0.00739346	588.5
1598	5.89722e+02	1.59800e+03	0.00741443	589.0
1599	5.90216e+02	1.59900e+03	0.00743827	589.5
1600	5.90702e+02	1.60000e+03	0.00749261	590.0
1601	5.91205e+02	1.60100e+03	0.00753128	590.5
1602	5.91693e+02	1.60200e+03	0.00756809	591.0
1603	5.92171e+02	1.60300e+03	0.00760563	591.5
1604	5.92680e+02	1.60400e+03	0.00763777	592.0
1605	5.93194e+02	1.60500e+03	0.00766656	592.5
1606	5.93705e+02	1.60600e+03	0.00768739	593.0
1607	5.94190e+02	1.60700e+03	0.00770193	593.5
1608	5.94668e+02	1.60800e+03	0.00768908	594.0
1609	5.95154e+02	1.60900e+03	0.00767284	594.5
1610	5.95625e+02	1.61000e+03	0.00765297	595.0
1611	5.96108e+02	1.61100e+03	0.00763156	595.5
1612	5.96596e+02	1.61200e+03	0.00758678	596.0
1613	5.97080e+02	1.61300e+03	0.00756282	596.5
1614	5.97574e+02	1.61400e+03	0.00754527	597.0
1615	5.98058e+02	1.61500e+03	0.00752984	597.5
1616	5.98544e+02	1.61600e+03	0.00753559	598.0
1617	5.99067e+02	1.61700e+03	0.00753403	598.5
1618	5.99593e+02	1.61800e+03	0.00753368	599.0
1619	6.00106e+02	1.61900e+03	0.00753551	599.5
1620	6.00595e+02	1.62000e+03	0.00754862	600.0
1621	6.01090e+02	1.62100e+03	0.00756053	600.5
1622	6.01606e+02	1.62200e+03	0.00757186	601.0
1623	6.02042e+02	1.62300e+03	0.00758237	601.5
1624	6.02543e+02	1.62400e+03	0.00759088	602.0
1625	6.03033e+02	1.62500e+03	0.00758933	602.5
1626	6.03474e+02	1.62600e+03	0.00758169	603.0
1627	6.03896e+02	1.62700e+03	0.00757159	603.5
1628	6.04345e+02	1.62800e+03	0.00754331	604.0
1629	6.04818e+02	1.62900e+03	0.007525	604.5
1630	6.05292e+02	1.63000e+03	0.00750757	605.0
1631	6.05768e+02	1.63100e+03	0.007489	605.5
1632	6.06240e+02	1.63200e+03	0.00746618	606.0
1633	6.06717e+02	1.63300e+03	0.00744035	606.5
1634	6.07184e+02	1.63400e+03	0.00741215	607.0
1635	6.07658e+02	1.63500e+03	0.00738395	607.5
1636	6.08128e+02	1.63600e+03	0.00735831	608.0
1637	6.08610e+02	1.63700e+03	0.00734283	608.5
1638	6.09088e+02	1.63800e+03	0.00733416	609.0
1639	6.09560e+02	1.63900e+03	0.00732883	609.5
1640	6.10036e+02	1.64000e+03	0.00734503	610.0
1641	6.10509e+02	1.64100e+03	0.00735199	610.5
1642	6.10982e+02	1.64200e+03	0.00735735	611.0
1643	6.11459e+02	1.64300e+03	0.00736293	611.5
1644	6.11952e+02	1.64400e+03	0.00737513	612.0
1645	6.12421e+02	1.64500e+03	0.00738634	612.5
1646	6.12914e+02	1.64600e+03	0.00739808	613.0
1647	6.13396e+02	1.64700e+03	0.00741022	613.5
1648	6.13892e+02	1.64800e+03	0.00742185	614.0
1649	6.14366e+02	1.64900e+03	0.00742856	614.5
1650	6.14850e+02	1.65000e+03	0.00743034	615.0
1651	6.15333e+02	1.65100e+03	0.00742928	615.5
1652	6.15817e+02	1.65200e+03	0.00741841	616.0
1653	6.16302e+02	1.65300e+03	0.0074125	616.5
1654	6.16784e+02	1.65400e+03	0.00740926	617.0
1655	6.17281e+02	1.65500e+03	0.00740721	617.5
1656	6.17774e+02	1.65600e+03	0.00740354	618.0
1657	6.18273e+02	1.65700e+03	0.00739906	618.5
1658	6.18749e+02	1.65800e+03	0.00738947	619.0
1659	6.19234e+02	1.65900e+03	0.00737606	619.5
1660	6.19702e+02	1.66000e+03	0.00736507	620.0
1661	6.20183e+02	1.66100e+03	0.00735759	620.5
1662	6.20668e+02	1.66200e+03	0.0073546	621.0
1663	6.21188e+02	1.66300e+03	0.00735505	621.5
1664	6.21686e+02	1.66400e+03	0.00736386	622.0
1665	6.22193e+02	1.66500e+03	0.00737293	622.5
1666	6.22694e+02	1.66600e+03	0.00738145	623.0
1667	6.23231e+02	1.66700e+03	0.00738908	623.5
1668	6.23771e+02	1.66800e+03	0.00740455	624.0
1669	6.24357e+02	1.66900e+03	0.00741278	624.5
1670	6.24899e+02	1.67000e+03	0.00741903	625.0
1671	6.25464e+02	1.67100e+03	0.00742515	625.5
1672	6.25992e+02	1.67200e+03	0.00742403	626.0
1673	6.26495e+02	1.67300e+03	0.00742455	626.5
1674	6.27063e+02	1.67400e+03	0.00742072	627.0
1675	6.27622e+02	1.67500e+03	0.00741318	627.5
1676	6.29555e+02	1.67600e+03	0.00739429	628.0
1677	6.30441e+02	1.67700e+03	0.00737392	628.5
1678	6.30808e+02	1.67800e+03	0.00735279	629.0
1679	6.31199e+02	1.67900e+03	0.00733169	629.5
1680	6.31537e+02	1.68000e+03	0.00729957	630.0
1681	6.31941e+02	1.68100e+03	0.00727681	630.5
1682	6.32370e+02	1.68200e+03	0.00725624	631.0
1683	6.32823e+02	1.68300e+03	0.00723556	631.5
1684	6.33273e+02	1.68400e+03	0.00722592	632.0
1685	6.33726e+02	1.68500e+03	0.00721608	632.5
1686	6.34199e+02	1.68600e+03	0.00721352	633.0
1687	6.34673e+02	1.68700e+03	0.00721743	633.5
1688	6.35149e+02	1.68800e+03	0.00724467	634.0
1689	6.35603e+02	1.68900e+03	0.00727459	634.5
1690	6.36058e+02	1.69000e+03	0.00730734	635.0
1691	6.36527e+02	1.69100e+03	0.00734042	635.5
1692	6.36990e+02	1.69200e+03	0.00739006	636.0
1693	6.37468e+02	1.69300e+03	0.00741987	636.5
1694	6.37948e+02	1.69400e+03	0.00744229	637.0
1695	6.38415e+02	1.69500e+03	0.00746199	637.5
1696	6.38897e+02	1.69600e+03	0.00745738	638.0
1697	6.39377e+02	1.69700e+03	0.00746383	638.5
1698	6.39850e+02	1.69800e+03	0.00746982	639.0
1699	6.40332e+02	1.69900e+03	0.00747315	639.5
1700	6.40827e+02	1.70000e+03	0.00746999	640.0
1701	6.41312e+02	1.70100e+03	0.00746753	640.5
1702	6.41808e+02	1.70200e+03	0.00746485	641.0
1703	6.42297e+02	1.70300e+03	0.00746192	641.5
1704	6.42789e+02	1.70400e+03	0.007453	642.0
1705	6.43266e+02	1.70500e+03	0.00744592	642.5
1706	6.43753e+02	1.70600e+03	0.00743619	643.0
1707	6.44236e+02	1.70700e+03	0.00742313	643.5
1708	6.44719e+02	1.70800e+03	0.00739962	644.0
1709	6.45207e+02	1.70900e+03	0.00737565	644.5
1710	6.45685e+02	1.71000e+03	0.00735527	645.0
1711	6.46168e+02	1.71100e+03	0.00733889	645.5
1712	6.46652e+02	1.71200e+03	0.00732693	646.0
1713	6.47145e+02	1.71300e+03	0.00733144	646.5
1714	6.47631e+02	1.71400e+03	0.00734664	647.0
1715	6.48112e+02	1.71500e+03	0.00736729	647.5
1716	6.48597e+02	1.71600e+03	0.00742637	648.0
1717	6.49079e+02	1.71700e+03	0.00746682	648.5
1718	6.49557e+02	1.71800e+03	0.00750212	649.0
1719	6.50046e+02	1.71900e+03	0.00753553	649.5
1720	6.50532e+02	1.72000e+03	0.00756153	650.0
1721	6.51018e+02	1.72100e+03	0.00758012	650.5
1722	6.51503e+02	1.72200e+03	0.00759057	651.0
1723	6.51985e+02	1.72300e+03	0.0075952	651.5
1724	6.52474e+02	1.72400e+03	0.00756696	652.0
1725	6.52968e+02	1.72500e+03	0.0075432	652.5
1726	6.53446e+02	1.72600e+03	0.00751646	653.0
1727	6.53938e+02	1.72700e+03	0.00748805	653.5
1728	6.54434e+02	1.72800e+03	0.00744551	654.0
1729	6.54908e+02	1.72900e+03	0.00741788	654.5
1730	6.55381e+02	1.73000e+03	0.00739582	655.0
1731	6.55853e+02	1.73100e+03	0.00737592	655.5
1732	6.56331e+02	1.73200e+03	0.00736846	656.0
1733	6.56814e+02	1.73300e+03	0.00734957	656.5
1734	6.57289e+02	1.73400e+03	0.00732353	657.0
1735	6.57781e+02	1.73500e+03	0.00729427	657.5
1736	6.58262e+02	1.73600e+03	0.00726169	658.0
1737	6.58753e+02	1.73700e+03	0.00723732	658.5
1738	6.59230e+02	1.73800e+03	0.00722173	659.0
1739	6.59708e+02	1.73900e+03	0.00721218	659.5
1740	6.60191e+02	1.74000e+03	0.00722133	660.0
1741	6.60666e+02	1.74100e+03	0.00723121	660.5
1742	6.61154e+02	1.74200e+03	0.00724307	661.0
1743	6.61636e+02	1.74300e+03	0.00725639	661.5
1744	6.62122e+02	1.74400e+03	0.00729043	662.0
1745	6.62609e+02	1.74500e+03	0.00731112	662.5
1746	6.63078e+02	1.74600e+03	0.00732855	663.0
1747	6.63567e+02	1.74700e+03	0.00734514	663.5
1748	6.64053e+02	1.74800e+03	0.00735071	664.0
1749	6.64548e+02	1.74900e+03	0.00735747	664.5
1750	6.65029e+02	1.75000e+03	0.00736159	665.0
1751	6.65528e+02	1.75100e+03	0.00736401	665.5
1752	6.66006e+02	1.75200e+03	0.00736137	666.0
1753	6.66501e+02	1.75300e+03	0.00736586	666.5
1754	6.66990e+02	1.75400e+03	0.00737677	667.0
1755	6.67483e+02	1.75500e+03	0.00739216	667.5
1756	6.67969e+02	1.75600e+03	0.0074213	668.0
1757	6.68450e+02	1.75700e+03	0.00744679	668.5
1758	6.68945e+02	1.75800e+03	0.00746867	669.0
1759	6.69439e+02	1.75900e+03	0.00748719	669.5
1760	6.69933e+02	1.76000e+03	0.0075051	670.0
1761	6.70423e+02	1.76100e+03	0.00751586	670.5
1762	6.70913e+02	1.76200e+03	0.00752444	671.0
1763	6.71393e+02	1.76300e+03	0.00753186	671.5
1764	6.71886e+02	1.76400e+03	0.00752148	672.0
1765	6.72373e+02	1.76500e+03	0.0075218	672.5
1766	6.72865e+02	1.76600e+03	0.00752214	673.0
1767	6.73353e+02	1.76700e+03	0.00752048	673.5
1768	6.73847e+02	1.76800e+03	0.00751855	674.0
1769	6.74341e+02	1.76900e+03	0.00751367	674.5
1770	6.74825e+02	1.77000e+03	0.00750874	675.0
1771	6.75318e+02	1.77100e+03	0.00750423	675.5
1772	6.75792e+02	1.77200e+03	0.00749315	676.0
1773	6.76269e+02	1.77300e+03	0.00748429	676.5
1774	6.76756e+02	1.77400e+03	0.00747004	677.0
1775	6.77227e+02	1.77500e+03	0.00744981	677.5
1776	6.77712e+02	1.77600e+03	0.00741926	678.0
1777	6.78203e+02	1.77700e+03	0.00738798	678.5
1778	6.78671e+02	1.77800e+03	0.00735775	679.0
1779	6.79151e+02	1.77900e+03	0.00732874	679.5
1780	6.79624e+02	1.78000e+03	0.00729029	680.0
1781	6.80106e+02	1.78100e+03	0.00726462	680.5
1782	6.80607e+02	1.78200e+03	0.00724375	681.0
1783	6.81089e+02	1.78300e+03	0.00722419	681.5
1784	6.81580e+02	1.78400e+03	0.00721952	682.0
1785	6.82077e+02	1.78500e+03	0.00720622	682.5
1786	6.82572e+02	1.78600e+03	0.00719213	683.0
1787	6.83078e+02	1.78700e+03	0.00717861	683.5
1788	6.83575e+02	1.78800e+03	0.00716715	684.0
1789	6.84084e+02	1.78900e+03	0.00716083	684.5
1790	6.84579e+02	1.79000e+03	0.00715801	685.0
1791	6.85072e+02	1.79100e+03	0.00715657	685.5
1792	6.85564e+02	1.79200e+03	0.00716811	686.0
1793	6.86058e+02	1.79300e+03	0.0071764	686.5
1794	6.86550e+02	1.79400e+03	0.0071893	687.0
1795	6.86731e+02	1.79500e+03	0.00720799	687.5
1796	6.86923e+02	1.79600e+03	0.00724696	688.0
1797	6.87232e+02	1.79700e+03	0.0072877	688.5
1798	6.87594e+02	1.79800e+03	0.00733296	689.0
1799	6.87964e+02	1.79900e+03	0.0073796	689.5
1800	6.88324e+02	1.80000e+03	0.00743445	690.0
1801	6.88688e+02	1.80100e+03	0.00746257	690.5
1802	6.89038e+02	1.80200e+03	0.00747262	691.0
1803	6.89367e+02	1.80300e+03	0.00747304	691.5
1804	6.89663e+02	1.80400e+03	0.00743294	692.0
1805	6.89964e+02	1.80500e+03	0.00740858	692.5
1806	6.90229e+02	1.80600e+03	0.00738617	693.0
1807	6.90484e+02	1.80700e+03	0.00736335	693.5
1808	6.90726e+02	1.80800e+03	0.00733279	694.0
1809	6.90964e+02	1.80900e+03	0.00731218	694.5
1810	6.91221e+02	1.81000e+03	0.00729657	695.0
1811	6.91448e+02	1.81100e+03	0.00728428	695.5
1812	6.91690e+02	1.81200e+03	0.00728999	696.0
1813	6.91925e+02	1.81300e+03	0.00729202	696.5
1814	6.92144e+02	1.81400e+03	0.00729654	697.0
1815	6.92358e+02	1.81500e+03	0.00730192	697.5
1816	6.92577e+02	1.81600e+03	0.00730383	698.0
1817	6.92792e+02	1.81700e+03	0.00729497	698.5
1818	6.92985e+02	1.81800e+03	0.0072785	699.0
1819	6.93160e+02	1.81900e+03	0.00725774	699.5
1820	6.93337e+02	1.82000e+03	0.00721549	700.0
1821	6.93516e+02	1.82100e+03	0.00718688	700.0
1822	6.93689e+02	1.82200e+03	0.0071645	700.0
1823	6.93831e+02	1.82300e+03	0.0071453	700.0
1824	6.93980e+02	1.82400e+03	0.00713598	700.0
1825	6.94138e+02	1.82500e+03	0.00712687	700.0
1826	6.94289e+02	1.82600e+03	0.0071183	700.0
1827	6.94460e+02	1.82700e+03	0.00711136	700.0
1828	6.94625e+02	1.82800e+03	0.0071225	700.0
1829	6.94775e+02	1.82900e+03	0.00712767	700.0
1830	6.94908e+02	1.83000e+03	0.00713153	700.0
1831	6.95035e+02	1.83100e+03	0.00713549	700.0
1832	6.95149e+02	1.83200e+03	0.00714273	700.0
1833	6.95263e+02	1.83300e+03	0.0071453	700.0
1834	6.95381e+02	1.83400e+03	0.00714326	700.0
1835	6.95507e+02	1.83500e+03	0.00713925	700.0
1836	6.95629e+02	1.83600e+03	0.00712958	700.0
1837	6.95738e+02	1.83700e+03	0.00712342	700.0
1838	6.95836e+02	1.83800e+03	0.00712271	700.0
1839	6.95954e+02	1.83900e+03	0.00712656	700.0
1840	6.96049e+02	1.84000e+03	0.00713754	700.0
1841	6.96140e+02	1.84100e+03	0.00715006	700.0
1842	6.96229e+02	1.84200e+03	0.00716292	700.0
1843	6.96313e+02	1.84300e+03	0.00717453	700.0
1844	6.96397e+02	1.84400e+03	0.00719504	700.0
1845	6.96487e+02	1.84500e+03	0.00720593	700.0
1846	6.96573e+02	1.84600e+03	0.00721369	700.0
1847	6.96669e+02	1.84700e+03	0.00722167	700.0
1848	6.96754e+02	1.84800e+03	0.00722022	700.0
1849	6.96834e+02	1.84900e+03	0.00722519	700.0
1850	6.96914e+02	1.85000e+03	0.00722901	700.0
1851	6.97006e+02	1.85100e+03	0.00722997	700.0
1852	6.97078e+02	1.85200e+03	0.00722411	700.0
1853	6.97154e+02	1.85300e+03	0.00721496	700.0
1854	6.97229e+02	1.85400e+03	0.00720596	700.0
1855	6.97312e+02	1.85500e+03	0.0071976	700.0
1856	6.97378e+02	1.85600e+03	0.00718046	700.0
1857	6.97448e+02	1.85700e+03	0.00717355	700.0
1858	6.97523e+02	1.85800e+03	0.00717075	700.0
1859	6.97591e+02	1.85900e+03	0.00716967	700.0
1860	6.97652e+02	1.86000e+03	0.00718034	700.0
1861	6.97714e+02	1.86100e+03	0.00718393	700.0
1862	6.97785e+02	1.86200e+03	0.00718562	700.0
1863	6.97845e+02	1.86300e+03	0.00718666	700.0
1864	6.97911e+02	1.86400e+03	0.0071821	700.0
1865	6.97965e+02	1.86500e+03	0.00717407	700.0
1866	6.98016e+02	1.86600e+03	0.00716094	700.0
1867	6.98063e+02	1.86700e+03	0.00714526	700.0
1868	6.98119e+02	1.86800e+03	0.00712083	700.0
1869	6.98168e+02	1.86900e+03	0.00710222	700.0
1870	6.98216e+02	1.87000e+03	0.00708569	700.0
1871	6.98267e+02	1.87100e+03	0.00707018	700.0
1872	6.98321e+02	1.87200e+03	0.00705841	700.0
1873	6.98373e+02	1.87300e+03	0.00704818	700.0
1874	6.98412e+02	1.87400e+03	0.00703926	700.0
1875	6.98444e+02	1.87500e+03	0.00703024	700.0
1876	6.98482e+02	1.87600e+03	0.00702424	700.0
1877	6.98524e+02	1.87700e+03	0.00701634	700.0
1878	6.98548e+02	1.87800e+03	0.0070112	700.0
1879	6.98575e+02	1.87900e+03	0.0070085	700.0
1880	6.98619e+02	1.88000e+03	0.00700886	700.0
1881	6.98654e+02	1.88100e+03	0.00701447	700.0
1882	6.98677e+02	1.88200e+03	0.00702681	700.0
1883	6.98704e+02	1.88300e+03	0.00704365	700.0
1884	6.98738e+02	1.88400e+03	0.00708016	700.0
1885	6.98774e+02	1.88500e+03	0.00710975	700.0
1886	6.98813e+02	1.88600e+03	0.00713699	700.0
1887	6.98837e+02	1.88700e+03	0.00716279	700.0
1888	6.98860e+02	1.88800e+03	0.00718283	700.0
1889	6.98890e+02	1.88900e+03	0.0071928	700.0
1890	6.98924e+02	1.89000e+03	0.00719552	700.0
1891	6.98941e+02	1.89100e+03	0.00719391	700.0
1892	6.98973e+02	1.89200e+03	0.0071629	700.0
1893	6.99005e+02	1.89300e+03	0.00714236	700.0
1894	6.99032e+02	1.89400e+03	0.0071217	700.0
1895	6.99062e+02	1.89500e+03	0.00709969	700.0
1896	6.99085e+02	1.89600e+03	0.00707103	700.0
1897	6.99116e+02	1.89700e+03	0.00704773	700.0
1898	6.99136e+02	1.89800e+03	0.00702896	700.0
1899	6.99150e+02	1.89900e+03	0.00701415	700.0
1900	6.99175e+02	1.90000e+03	0.00701153	700.0
1901	6.99206e+02	1.90100e+03	0.00700776	700.0
1902	6.99220e+02	1.90200e+03	0.00700261	700.0
1903	6.99235e+02	1.90300e+03	0.00699595	700.0
1904	6.99262e+02	1.90400e+03	0.00700063	700.0
1905	6.99281e+02	1.90500e+03	0.00700064	700.0
1906	6.99291e+02	1.90600e+03	0.00700156	700.0
1907	6.99304e+02	1.90700e+03	0.00700395	700.0
1908	6.99327e+02	1.90800e+03	0.00700826	700.0
1909	6.99347e+02	1.90900e+03	0.00701542	700.0
1910	6.99356e+02	1.91000e+03	0.00702361	700.0
1911	6.99383e+02	1.91100e+03	0.00703203	700.0
1912	6.99399e+02	1.91200e+03	0.00704381	700.0
1913	6.99407e+02	1.91300e+03	0.00704855	700.0
1914	6.99413e+02	1.91400e+03	0.00704951	700.0
1915	6.99430e+02	1.91500e+03	0.0070484	700.0
1916	6.99445e+02	1.91600e+03	0.00703368	700.0
1917	6.99461e+02	1.91700e+03	0.00702262	700.0
1918	6.99481e+02	1.91800e+03	0.00701113	700.0
1919	6.99494e+02	1.91900e+03	0.00699893	700.0
1920	6.99501e+02	1.92000e+03	0.00698342	700.0
1921	6.99522e+02	1.92100e+03	0.006973	700.0
1922	6.99531e+02	1.92200e+03	0.00696571	700.0
1923	6.99542e+02	1.92300e+03	0.00696037	700.0
1924	6.99549e+02	1.92400e+03	0.00696673	700.0
1925	6.99564e+02	1.92500e+03	0.00697267	700.0
1926	6.99572e+02	1.92600e+03	0.00698093	700.0
1927	6.99573e+02	1.92700e+03	0.00699101	700.0
1928	6.99579e+02	1.92800e+03	0.00701256	700.0
1929	6.99597e+02	1.92900e+03	0.00702944	700.0
1930	6.99607e+02	1.93000e+03	0.00704615	700.0
1931	6.99612e+02	1.93100e+03	0.00706337	700.0
1932	6.99618e+02	1.93200e+03	0.00708199	700.0
1933	6.99628e+02	1.93300e+03	0.00709896	700.0
1934	6.99639e+02	1.93400e+03	0.0071145	700.0
1935	6.99643e+02	1.93500e+03	0.00712892	700.0
1936	6.99644e+02	1.93600e+03	0.00713707	700.0
1937	6.99657e+02	1.93700e+03	0.00714333	700.0
1938	6.99670e+02	1.93800e+03	0.00714688	700.0
1939	6.99673e+02	1.93900e+03	0.007149	700.0
1940	6.99677e+02	1.94000e+03	0.0071442	700.0
1941	6.99685e+02	1.94100e+03	0.00714365	700.0
1942	6.99695e+02	1.94200e+03	0.00714174	700.0
1943	6.99696e+02	1.94300e+03	0.00713823	700.0
1944	6.99700e+02	1.94400e+03	0.00713259	700.0
1945	6.99698e+02	1.94500e+03	0.00712516	700.0
1946	6.99710e+02	1.94600e+03	0.00711762	700.0
1947	6.99724e+02	1.94700e+03	0.00711199	700.0
1948	6.99724e+02	1.94800e+03	0.00711127	700.0
1949	6.99724e+02	1.94900e+03	0.00711584	700.0
1950	6.99733e+02	1.95000e+03	0.00712087	700.0
1951	6.99734e+02	1.95100e+03	0.00712444	700.0
1952	6.99739e+02	1.95200e+03	0.00713204	700.0
1953	6.99739e+02	1.95300e+03	0.00712655	700.0
1954	6.99750e+02	1.95400e+03	0.00711401	700.0
1955	6.99758e+02	1.95500e+03	0.00709781	700.0
1956	6.99761e+02	1.95600e+03	0.00705993	700.0
1957	6.99754e+02	1.95700e+03	0.00703495	700.0
1958	6.99767e+02	1.95800e+03	0.00701512	700.0
1959	6.99771e+02	1.95900e+03	0.00699808	700.0
1960	6.99776e+02	1.96000e+03	0.00699393	700.0
1961	6.99777e+02	1.96100e+03	0.00699008	700.0
1962	6.99782e+02	1.96200e+03	0.0069883	700.0
1963	6.99791e+02	1.96300e+03	0.00698912	700.0
1964	6.99802e+02	1.96400e+03	0.00700851	700.0
1965	6.99792e+02	1.96500e+03	0.0070232	700.0
1966	6.99801e+02	1.96600e+03	0.0070398	700.0
1967	6.99808e+02	1.96700e+03	0.00705693	700.0
1968	6.99807e+02	1.96800e+03	0.00707258	700.0
1969	6.99819e+02	1.96900e+03	0.00708323	700.0
1970	6.99804e+02	1.97000e+03	0.00709155	700.0
1971	6.99820e+02	1.97100e+03	0.0071003	700.0
1972	6.99824e+02	1.97200e+03	0.00710471	700.0
1973	6.99818e+02	1.97300e+03	0.00711434	700.0
1974	6.99818e+02	1.97400e+03	0.0071271	700.0
1975	6.99832e+02	1.97500e+03	0.007141	700.0
1976	6.99827e+02	1.97600e+03	0.00715668	700.0
1977	6.99830e+02	1.97700e+03	0.0071648	700.0
1978	6.99827e+02	1.97800e+03	0.00716729	700.0
1979	6.99836e+02	1.97900e+03	0.0071662	700.0
1980	6.99831e+02	1.98000e+03	0.00714706	700.0
1981	6.99838e+02	1.98100e+03	0.00713009	700.0
1982	6.99842e+02	1.98200e+03	0.00711344	700.0
1983	6.99836e+02	1.98300e+03	0.00709842	700.0
1984	6.99846e+02	1.98400e+03	0.00708039	700.0
1985	6.99847e+02	1.98500e+03	0.00707148	700.0
1986	6.99851e+02	1.98600e+03	0.0070664	700.0
1987	6.99847e+02	1.98700e+03	0.00706314	700.0
1988	6.99845e+02	1.98800e+03	0.0070787	700.0
1989	6.99855e+02	1.98900e+03	0.007086	700.0
1990	6.99854e+02	1.99000e+03	0.00709423	700.0
1991	6.99863e+02	1.99100e+03	0.00710537	700.0
1992	6.99849e+02	1.99200e+03	0.00712029	700.0
1993	6.99852e+02	1.99300e+03	0.00713198	700.0
1994	6.99857e+02	1.99400e+03	0.00714056	700.0
1995	6.99861e+02	1.99500e+03	0.00714701	700.0
1996	6.99867e+02	1.99600e+03	0.00714838	700.0
1997	6.99872e+02	1.99700e+03	0.00714676	700.0
1998	6.99870e+02	1.99800e+03	0.00714294	700.0
1999	6.99868e+02	1.99900e+03	0.00713794	700.0
2000	6.99879e+02	2.00000e+03	0.00712374	700.0
2001	6.99872e+02	2.00100e+03	0.00711694	700.0
2002	6.99879e+02	2.00200e+03	0.00711229	700.0
2003	6.99884e+02	2.00300e+03	0.0071083	700.0
2004	6.99879e+02	2.00400e+03	0.00710922	700.0
2005	6.99884e+02	2.00500e+03	0.00710691	700.0
2006	6.99878e+02	2.00600e+03	0.00710353	700.0
2007	6.99878e+02	2.00700e+03	0.00709968	700.0
2008	6.99886e+02	2.00800e+03	0.00709269	700.0
2009	6.99891e+02	2.00900e+03	0.00708561	700.0
2010	6.99891e+02	2.01000e+03	0.00707808	700.0
2011	6.99887e+02	2.01100e+03	0.0070703	700.0
2012	6.99888e+02	2.01200e+03	0.00706177	700.0
2013	6.99884e+02	2.01300e+03	0.00705826	700.0
2014	6.99887e+02	2.01400e+03	0.00706212	700.0
2015	6.99890e+02	2.01500e+03	0.0070716	700.0
2016	6.99890e+02	2.01600e+03	0.00709784	700.0
2017	6.99886e+02	2.01700e+03	0.00712266	700.0
2018	6.99889e+02	2.01800e+03	0.00714921	700.0
2019	6.99890e+02	2.01900e+03	0.00717698	700.0
2020	6.99892e+02	2.02000e+03	0.0072173	700.0
2021	6.99894e+02	2.02100e+03	0.00724603	700.0
2022	6.99890e+02	2.02200e+03	0.00726929	700.0
2023	6.99891e+02	2.02300e+03	0.00728962	700.0
2024	6.99897e+02	2.02400e+03	0.00729708	700.0
2025	6.99897e+02	2.02500e+03	0.00730845	700.0
2026	6.99897e+02	2.02600e+03	0.00731687	700.0
2027	6.99898e+02	2.02700e+03	0.00732236	700.0
2028	6.99900e+02	2.02800e+03	0.00731587	700.0
2029	6.99898e+02	2.02900e+03	0.00731264	700.0
2030	6.99905e+02	2.03000e+03	0.00731224	700.0
2031	6.99903e+02	2.03100e+03	0.00731365	700.0
2032	6.99904e+02	2.03200e+03	0.0073141	700.0
2033	6.99906e+02	2.03300e+03	0.00732152	700.0
2034	6.99906e+02	2.03400e+03	0.00733172	700.0
2035	6.99907e+02	2.03500e+03	0.0073418	700.0
2036	6.99912e+02	2.03600e+03	0.007358	700.0
2037	6.99914e+02	2.03700e+03	0.00736482	700.0
2038	6.99910e+02	2.03800e+03	0.00736693	700.0
2039	6.99913e+02	2.03900e+03	0.00736662	700.0
2040	6.99906e+02	2.04000e+03	0.00735702	700.0
2041	6.99897e+02	2.04100e+03	0.00735622	700.0
2042	6.99909e+02	2.04200e+03	0.00735797	700.0
2043	6.99900e+02	2.04300e+03	0.00736004	700.0
2044	6.99900e+02	2.04400e+03	0.00736557	700.0
2045	6.99903e+02	2.04500e+03	0.00736415	700.0
2046	6.99897e+02	2.04600e+03	0.00735682	700.0
2047	6.99897e+02	2.04700e+03	0.00734701	700.0
2048	6.99897e+02	2.04800e+03	0.00732721	700.0
2049	6.99895e+02	2.04900e+03	0.0073083	700.0
2050	6.99893e+02	2.05000e+03	0.00728836	700.0
2051	6.99904e+02	2.05100e+03	0.0072677	700.0
2052	6.99901e+02	2.05200e+03	0.00723942	700.0
2053	6.99898e+02	2.05300e+03	0.00721752	700.0
2054	6.99901e+02	2.05400e+03	0.00719812	700.0
2055	6.99899e+02	2.05500e+03	0.0071799	700.0
2056	6.99893e+02	2.05600e+03	0.00716982	700.0
2057	6.99898e+02	2.05700e+03	0.00715949	700.0
2058	6.99899e+02	2.05800e+03	0.00715375	700.0
2059	6.99898e+02	2.05900e+03	0.00715238	700.0
2060	6.99893e+02	2.06000e+03	0.00716331	700.0
2061	6.99894e+02	2.06100e+03	0.00717098	700.0
2062	6.99907e+02	2.06200e+03	0.00717853	700.0
2063	6.99901e+02	2.06300e+03	0.00718633	700.0
2064	6.99895e+02	2.06400e+03	0.00720048	700.0
2065	6.99894e+02	2.06500e+03	0.00720895	700.0
2066	6.99898e+02	2.06600e+03	0.00721536	700.0
2067	6.99908e+02	2.06700e+03	0.00722094	700.0
2068	6.99902e+02	2.06800e+03	0.00722016	700.0
2069	6.99895e+02	2.06900e+03	0.00722177	700.0
2070	6.99893e+02	2.07000e+03	0.00722333	700.0
2071	6.99895e+02	2.07100e+03	0.00722456	700.0
2072	6.99894e+02	2.07200e+03	0.00723056	700.0
2073	6.99895e+02	2.07300e+03	0.00724047	700.0
2074	6.99893e+02	2.07400e+03	0.00725147	700.0
2075	6.99898e+02	2.07500e+03	0.00726263	700.0
2076	6.99896e+02	2.07600e+03	0.00727909	700.0
2077	6.99890e+02	2.07700e+03	0.00728768	700.0
2078	6.99896e+02	2.07800e+03	0.00729107	700.0
2079	6.99904e+02	2.07900e+03	0.00729122	700.0
2080	6.99895e+02	2.08000e+03	0.00727426	700.0
2081	6.99894e+02	2.08100e+03	0.00725859	700.0
2082	6.99903e+02	2.08200e+03	0.00724142	700.0
2083	6.99898e+02	2.08300e+03	0.00722457	700.0
2084	6.99889e+02	2.08400e+03	0.00720141	700.0
2085	6.99893e+02	2.08500e+03	0.00718608	700.0
2086	6.99880e+02	2.08600e+03	0.00717292	700.0
2087	6.99889e+02	2.08700e+03	0.00716049	700.0
2088	6.99897e+02	2.08800e+03	0.00716028	700.0
2089	6.99889e+02	2.08900e+03	0.00715475	700.0
2090	6.99889e+02	2.09000e+03	0.00714886	700.0
2091	6.99890e+02	2.09100e+03	0.00714341	700.0
2092	6.99897e+02	2.09200e+03	0.00713941	700.0
2093	6.99889e+02	2.09300e+03	0.00713537	700.0
2094	6.99889e+02	2.09400e+03	0.00713111	700.0
2095	6.99895e+02	2.09500e+03	0.00712661	700.0
2096	6.99898e+02	2.09600e+03	0.00712187	700.0
2097	6.99887e+02	2.09700e+03	0.00711573	700.0
2098	6.99883e+02	2.09800e+03	0.00710868	700.0
2099	6.99884e+02	2.09900e+03	0.00710113	700.0
2100	6.99883e+02	2.10000e+03	0.00709014	700.0
2101	6.99888e+02	2.10100e+03	0.00708065	700.0
2102	6.99883e+02	2.10200e+03	0.00707155	700.0
2103	6.99886e+02	2.10300e+03	0.00706262	700.0
2104	6.99878e+02	2.10400e+03	0.00705469	700.0
2105	6.99887e+02	2.10500e+03	0.00704923	700.0
2106	6.99888e+02	2.10600e+03	0.00704939	700.0
2107	6.99877e+02	2.10700e+03	0.00705406	700.0
2108	6.99885e+02	2.10800e+03	0.00706895	700.0
2109	6.99885e+02	2.10900e+03	0.00708214	700.0
2110	6.99883e+02	2.11000e+03	0.00709602	700.0
2111	6.99879e+02	2.11100e+03	0.00711047	700.0
2112	6.99882e+02	2.11200e+03	0.00713204	700.0
2113	6.99876e+02	2.11300e+03	0.00714639	700.0
2114	6.99879e+02	2.11400e+03	0.00715716	700.0
2115	6.99879e+02	2.11500e+03	0.00716625	700.0
2116	6.99877e+02	2.11600e+03	0.00716908	700.0
2117	6.99884e+02	2.11700e+03	0.00717501	700.0
2118	6.99877e+02	2.11800e+03	0.00717885	700.0
2119	6.99872e+02	2.11900e+03	0.00718058	700.0
2120	6.99867e+02	2.12000e+03	0.00717217	700.0
2121	6.99866e+02	2.12100e+03	0.00715824	700.0
2122	6.99864e+02	2.12200e+03	0.00713918	700.0
2123	6.99859e+02	2.12300e+03	0.00711788	700.0
2124	6.99861e+02	2.12400e+03	0.0070803	700.0
2125	6.99862e+02	2.12500e+03	0.00705186	700.0
2126	6.99861e+02	2.12600e+03	0.00702537	700.0
2127	6.99860e+02	2.12700e+03	0.0069992	700.0
2128	6.99860e+02	2.12800e+03	0.00697506	700.0
2129	6.99859e+02	2.12900e+03	0.00695155	700.0
2130	6.99861e+02	2.13000e+03	0.00693188	700.0
2131	6.99862e+02	2.13100e+03	0.00691571	700.0
2132	6.99861e+02	2.13200e+03	0.00691078	700.0
2133	6.99854e+02	2.13300e+03	0.00690782	700.0
2134	6.99856e+02	2.13400e+03	0.00690712	700.0
2135	6.99858e+02	2.13500e+03	0.00690724	700.0
2136	6.99853e+02	2.13600e+03	0.00692043	700.0
2137	6.99844e+02	2.13700e+03	0.00692559	700.0
2138	6.99856e+02	2.13800e+03	0.00692986	700.0
2139	6.99855e+02	2.13900e+03	0.00693604	700.0
2140	6.99856e+02	2.14000e+03	0.00694575	700.0
2141	6.99854e+02	2.14100e+03	0.0069567	700.0
2142	6.99848e+02	2.14200e+03	0.00696779	700.0
2143	6.99846e+02	2.14300e+03	0.00697957	700.0
2144	6.99853e+02	2.14400e+03	0.00700181	700.0
2145	6.99852e+02	2.14500e+03	0.0070188	700.0
2146	6.99847e+02	2.14600e+03	0.00703166	700.0
2147	6.99852e+02	2.14700e+03	0.0070408	700.0
2148	6.99842e+02	2.14800e+03	0.00703805	700.0
2149	6.99832e+02	2.14900e+03	0.00703218	700.0
2150	6.99842e+02	2.15000e+03	0.00702038	700.0
2151	6.99846e+02	2.15100e+03	0.00700437	700.0
2152	6.99839e+02	2.15200e+03	0.0069724	700.0
2153	6.99838e+02	2.15300e+03	0.00695314	700.0
2154	6.99840e+02	2.15400e+03	0.00693837	700.0
2155	6.99839e+02	2.15500e+03	0.00692554	700.0
2156	6.99840e+02	2.15600e+03	0.00692378	700.0
2157	6.99844e+02	2.15700e+03	0.00692179	700.0
2158	6.99842e+02	2.15800e+03	0.00692305	700.0
2159	6.99834e+02	2.15900e+03	0.00692692	700.0
2160	6.99829e+02	2.16000e+03	0.00694541	700.0
2161	6.99836e+02	2.16100e+03	0.00696239	700.0
2162	6.99836e+02	2.16200e+03	0.00698373	700.0
2163	6.99828e+02	2.16300e+03	0.00700815	700.0
2164	6.99830e+02	2.16400e+03	0.00704014	700.0
2165	6.99825e+02	2.16500e+03	0.00706485	700.0
2166	6.99827e+02	2.16600e+03	0.00708606	700.0
2167	6.99825e+02	2.16700e+03	0.00710534	700.0
2168	6.99822e+02	2.16800e+03	0.00711664	700.0
2169	6.99826e+02	2.16900e+03	0.00713087	700.0
2170	6.99827e+02	2.17000e+03	0.00714521	700.0
2171	6.99818e+02	2.17100e+03	0.00715784	700.0
2172	6.99825e+02	2.17200e+03	0.00716042	700.0
2173	6.99812e+02	2.17300e+03	0.00716411	700.0
2174	6.99822e+02	2.17400e+03	0.00716594	700.0
2175	6.99820e+02	2.17500e+03	0.0071661	700.0
2176	6.99807e+02	2.17600e+03	0.00715669	700.0
2177	6.99818e+02	2.17700e+03	0.00714754	700.0
2178	6.99823e+02	2.17800e+03	0.00713485	700.0
2179	6.99820e+02	2.17900e+03	0.00711914	700.0
2180	6.99817e+02	2.18000e+03	0.00708839	700.0
2181	6.99811e+02	2.18100e+03	0.0070589	700.0
2182	6.99818e+02	2.18200e+03	0.00702784	700.0
2183	6.99815e+02	2.18300e+03	0.00699566	700.0
2184	6.99812e+02	2.18400e+03	0.00695469	700.0
2185	6.99804e+02	2.18500e+03	0.00692231	700.0
2186	6.99805e+02	2.18600e+03	0.00689463	700.0
2187	6.99810e+02	2.18700e+03	0.00687046	700.0
2188	6.99801e+02	2.18800e+03	0.00686769	700.0
2189	6.99804e+02	2.18900e+03	0.00686581	700.0
2190	6.99799e+02	2.19000e+03	0.00686772	700.0
2191	6.99800e+02	2.19100e+03	0.00687247	700.0
2192	6.99806e+02	2.19200e+03	0.00689989	700.0
2193	6.99804e+02	2.19300e+03	0.00691632	700.0
2194	6.99796e+02	2.19400e+03	0.00693089	700.0
2195	6.99798e+02	2.19500e+03	0.00694551	700.0
2196	6.99797e+02	2.19600e+03	0.00696394	700.0
2197	6.99806e+02	2.19700e+03	0.0069833	700.0
2198	6.99800e+02	2.19800e+03	0.00700104	700.0
2199	6.99796e+02	2.19900e+03	0.00701738	700.0
2200	6.99798e+02	2.20000e+03	0.00703136	700.0
2201	6.99790e+02	2.20100e+03	0.00704202	700.0
2202	6.99797e+02	2.20200e+03	0.00705359	700.0
2203	6.99799e+02	2.20300e+03	0.00706664	700.0
2204	6.99788e+02	2.20400e+03	0.00707176	700.0
2205	6.99779e+02	2.20500e+03	0.007081	700.0
2206	6.99790e+02	2.20600e+03	0.00709064	700.0
2207	6.99795e+02	2.20700e+03	0.00710009	700.0
2208	6.99778e+02	2.20800e+03	0.0071129	700.0
2209	6.99778e+02	2.20900e+03	0.00712359	700.0
2210	6.99779e+02	2.21000e+03	0.00713362	700.0
2211	6.99779e+02	2.21100e+03	0.00714332	700.0
2212	6.99771e+02	2.21200e+03	0.00714949	700.0
2213	6.99771e+02	2.21300e+03	0.00715458	700.0
2214	6.99775e+02	2.21400e+03	0.0071573	700.0
2215	6.99779e+02	2.21500e+03	0.00715824	700.0
2216	6.99776e+02	2.21600e+03	0.00714923	700.0
2217	6.99767e+02	2.21700e+03	0.00714113	700.0
2218	6.99768e+02	2.21800e+03	0.00713436	700.0
2219	6.99768e+02	2.21900e+03	0.00712949	700.0
2220	6.99776e+02	2.22000e+03	0.007126	700.0
2221	6.99771e+02	2.22100e+03	0.00713089	700.0
2222	6.99766e+02	2.22200e+03	0.00713975	700.0
2223	6.99762e+02	2.22300e+03	0.00714959	700.0
2224	6.99772e+02	2.22400e+03	0.00717401	700.0
2225	6.99773e+02	2.22500e+03	0.00718839	700.0
2226	6.99768e+02	2.22600e+03	0.00719965	700.0
2227	6.99764e+02	2.22700e+03	0.00720973	700.0
2228	6.99764e+02	2.22800e+03	0.00721164	700.0
2229	6.99765e+02	2.22900e+03	0.00721433	700.0
2230	6.99760e+02	2.23000e+03	0.00721488	700.0
2231	6.99758e+02	2.23100e+03	0.00721356	700.0
2232	6.99757e+02	2.23200e+03	0.00720175	700.0
2233	6.99750e+02	2.23300e+03	0.00719084	700.0
2234	6.99757e+02	2.23400e+03	0.00717692	700.0
2235	6.99753e+02	2.23500e+03	0.00715928	700.0
2236	6.99753e+02	2.23600e+03	0.00712309	700.0
2237	6.99744e+02	2.23700e+03	0.00708876	700.0
2238	6.99747e+02	2.23800e+03	0.0070532	700.0
2239	6.99752e+02	2.23900e+03	0.00701651	700.0
2240	6.99752e+02	2.24000e+03	0.00696708	700.0
2241	6.99754e+02	2.24100e+03	0.00692711	700.0
2242	6.99758e+02	2.24200e+03	0.00689077	700.0
2243	6.99752e+02	2.24300e+03	0.00685613	700.0
2244	6.99751e+02	2.24400e+03	0.00683284	700.0
2245	6.99751e+02	2.24500e+03	0.00681035	700.0
2246	6.99742e+02	2.24600e+03	0.00679496	700.0
2247	6.99753e+02	2.24700e+03	0.00678515	700.0
2248	6.99744e+02	2.24800e+03	0.00679244	700.0
2249	6.99742e+02	2.24900e+03	0.00679563	700.0
2250	6.99743e+02	2.25000e+03	0.00680024	700.0
2251	6.99744e+02	2.25100e+03	0.00680641	700.0
2252	6.99739e+02	2.25200e+03	0.00682445	700.0
2253	6.99738e+02	2.25300e+03	0.00683627	700.0
2254	6.99740e+02	2.25400e+03	0.00684626	700.0
2255	6.99733e+02	2.25500e+03	0.00685556	700.0
2256	6.99736e+02	2.25600e+03	0.00686085	700.0
2257	6.99730e+02	2.25700e+03	0.00686496	700.0
2258	6.99725e+02	2.25800e+03	0.0068673	700.0
2259	6.99731e+02	2.25900e+03	0.00686844	700.0
2260	6.99739e+02	2.26000e+03	0.00686561	700.0
2261	6.99727e+02	2.26100e+03	0.00686929	700.0
2262	6.99721e+02	2.26200e+03	0.00687644	700.0
2263	6.99733e+02	2.26300e+03	0.00688552	700.0
2264	6.99732e+02	2.26400e+03	0.00690615	700.0
2265	6.99714e+02	2.26500e+03	0.00692394	700.0
2266	6.99720e+02	2.26600e+03	0.00693777	700.0
2267	6.99719e+02	2.26700e+03	0.00694784	700.0
2268	6.99725e+02	2.26800e+03	0.00695721	700.0
2269	6.99724e+02	2.26900e+03	0.00696412	700.0
2270	6.99717e+02	2.27000e+03	0.00697375	700.0
2271	6.99720e+02	2.27100e+03	0.00698676	700.0
2272	6.99713e+02	2.27200e+03	0.006997	700.0
2273	6.99713e+02	2.27300e+03	0.00701335	700.0
2274	6.99713e+02	2.27400e+03	0.00703058	700.0
2275	6.99727e+02	2.27500e+03	0.00704752	700.0
2276	6.99714e+02	2.27600e+03	0.00707364	700.0
2277	6.99713e+02	2.27700e+03	0.00708891	700.0
2278	6.99719e+02	2.27800e+03	0.00709919	700.0
2279	6.99708e+02	2.27900e+03	0.00710698	700.0
2280	6.99699e+02	2.28000e+03	0.0070981	700.0
2281	6.99706e+02	2.28100e+03	0.00709402	700.0
2282	6.99706e+02	2.28200e+03	0.00708922	700.0
2283	6.99703e+02	2.28300e+03	0.00708331	700.0
2284	6.99707e+02	2.28400e+03	0.00707113	700.0
2285	6.99703e+02	2.28500e+03	0.00706268	700.0
2286	6.99700e+02	2.28600e+03	0.00705503	700.0
2287	6.99694e+02	2.28700e+03	0.00704745	700.0
2288	6.99706e+02	2.28800e+03	0.00704047	700.0
2289	6.99695e+02	2.28900e+03	0.00703213	700.0
2290	6.99698e+02	2.29000e+03	0.00702092	700.0
2291	6.99694e+02	2.29100e+03	0.00700641	700.0
2292	6.99699e+02	2.29200e+03	0.00698342	700.0
2293	6.99706e+02	2.29300e+03	0.00696149	700.0
2294	6.99693e+02	2.29400e+03	0.00693993	700.0
2295	6.99692e+02	2.29500e+03	0.00691863	700.0
2296	6.99695e+02	2.29600e+03	0.0068957	700.0
2297	6.99694e+02	2.29700e+03	0.00688407	700.0
2298	6.99697e+02	2.29800e+03	0.00687886	700.0
2299	6.99693e+02	2.29900e+03	0.00687606	700.0
2300	6.99699e+02	2.30000e+03	0.00689107	700.0
2301	6.99700e+02	2.30100e+03	0.00689763	700.0
2302	6.99691e+02	2.30200e+03	0.00690285	700.0
2303	6.99691e+02	2.30300e+03	0.00690802	700.0
2304	6.99690e+02	2.30400e+03	0.00691354	700.0
2305	6.99687e+02	2.30500e+03	0.00691759	700.0
2306	6.99687e+02	2.30600e+03	0.00692084	700.0
2307	6.99691e+02	2.30700e+03	0.00692372	700.0
2308	6.99687e+02	2.30800e+03	0.00692474	700.0
2309	6.99693e+02	2.30900e+03	0.00692778	700.0
2310	6.99693e+02	2.31000e+03	0.00693209	700.0
2311	6.99699e+02	2.31100e+03	0.00693772	700.0
2312	6.99683e+02	2.31200e+03	0.0069522	700.0
2313	6.99693e+02	2.31300e+03	0.00696931	700.0
2314	6.99688e+02	2.31400e+03	0.00698919	700.0
2315	6.99688e+02	2.31500e+03	0.00701005	700.0
2316	6.99692e+02	2.31600e+03	0.00703452	700.0
2317	6.99689e+02	2.31700e+03	0.00704593	700.0
2318	6.99683e+02	2.31800e+03	0.00704777	700.0
2319	6.99680e+02	2.31900e+03	0.00704461	700.0
2320	6.99681e+02	2.32000e+03	0.00701983	700.0
2321	6.99687e+02	2.32100e+03	0.00700212	700.0
2322	6.99678e+02	2.32200e+03	0.00698418	700.0
2323	6.99685e+02	2.32300e+03	0.00696534	700.0
2324	6.99682e+02	2.32400e+03	0.00693843	700.0
2325	6.99675e+02	2.32500e+03	0.00691757	700.0
2326	6.99678e+02	2.32600e+03	0.00689899	700.0
2327	6.99681e+02	2.32700e+03	0.00688141	700.0
2328	6.99684e+02	2.32800e+03	0.00687232	700.0
2329	6.99690e+02	2.32900e+03	0.00686704	700.0
2330	6.99674e+02	2.33000e+03	0.00686701	700.0
2331	6.99666e+02	2.33100e+03	0.00686897	700.0
2332	6.99668e+02	2.33200e+03	0.00688252	700.0
2333	6.99671e+02	2.33300e+03	0.00689037	700.0
2334	6.99678e+02	2.33400e+03	0.0068967	700.0
2335	6.99676e+02	2.33500e+03	0.00690237	700.0
2336	6.99667e+02	2.33600e+03	0.00690609	700.0
2337	6.99673e+02	2.33700e+03	0.00690724	700.0
2338	6.99676e+02	2.33800e+03	0.0069062	700.0
2339	6.99669e+02	2.33900e+03	0.00690384	700.0
2340	6.99672e+02	2.34000e+03	0.00688854	700.0
2341	6.99670e+02	2.34100e+03	0.00686962	700.0
2342	6.99667e+02	2.34200e+03	0.00684403	700.0
2343	6.99663e+02	2.34300e+03	0.00681536	700.0
2344	6.99668e+02	2.34400e+03	0.00677685	700.0
2345	6.99667e+02	2.34500e+03	0.00674924	700.0
2346	6.99674e+02	2.34600e+03	0.00672968	700.0
2347	6.99670e+02	2.34700e+03	0.0067161	700.0
2348	6.99671e+02	2.34800e+03	0.00672164	700.0
2349	6.99673e+02	2.34900e+03	0.00672618	700.0
2350	6.99670e+02	2.35000e+03	0.0067332	700.0
2351	6.99663e+02	2.35100e+03	0.0067421	700.0
2352	6.99658e+02	2.35200e+03	0.00677006	700.0
2353	6.99667e+02	2.35300e+03	0.00678987	700.0
2354	6.99667e+02	2.35400e+03	0.00681059	700.0
2355	6.99662e+02	2.35500e+03	0.00683271	700.0
2356	6.99674e+02	2.35600e+03	0.00685479	700.0
2357	6.99671e+02	2.35700e+03	0.00687779	700.0
2358	6.99668e+02	2.35800e+03	0.00689937	700.0
2359	6.99673e+02	2.35900e+03	0.00691869	700.0
2360	6.99668e+02	2.36000e+03	0.00693366	700.0
2361	6.99673e+02	2.36100e+03	0.00694385	700.0
2362	6.99662e+02	2.36200e+03	0.00694952	700.0
2363	6.99661e+02	2.36300e+03	0.00695223	700.0
2364	6.99662e+02	2.36400e+03	0.00693794	700.0
2365	6.99667e+02	2.36500e+03	0.00692658	700.0
2366	6.99670e+02	2.36600e+03	0.00691011	700.0
2367	6.99666e+02	2.36700e+03	0.00688914	700.0
2368	6.99668e+02	2.36800e+03	0.00685388	700.0
2369	6.99664e+02	2.36900e+03	0.00682506	700.0
2370	6.99660e+02	2.37000e+03	0.00680298	700.0
2371	6.99657e+02	2.37100e+03	0.00678648	700.0
2372	6.99662e+02	2.37200e+03	0.00678014	700.0
2373	6.99666e+02	2.37300e+03	0.00678091	700.0
2374	6.99661e+02	2.37400e+03	0.00678701	700.0
2375	6.99662e+02	2.37500e+03	0.00679612	700.0
2376	6.99654e+02	2.37600e+03	0.0068299	700.0
2377	6.99669e+02	2.37700e+03	0.00684701	700.0
2378	6.99657e+02	2.37800e+03	0.00685898	700.0
2379	6.99649e+02	2.37900e+03	0.00686952	700.0
2380	6.99650e+02	2.38000e+03	0.00687035	700.0
2381	6.99646e+02	2.38100e+03	0.00687312	700.0
2382	6.99652e+02	2.38200e+03	0.00687263	700.0
2383	6.99652e+02	2.38300e+03	0.00686941	700.0
2384	6.99644e+02	2.38400e+03	0.00685698	700.0
2385	6.99643e+02	2.38500e+03	0.00684987	700.0
2386	6.99647e+02	2.38600e+03	0.0068459	700.0
2387	6.99641e+02	2.38700e+03	0.00684293	700.0
2388	6.99647e+02	2.38800e+03	0.00684575	700.0
2389	6.99643e+02	2.38900e+03	0.00685291	700.0
2390	6.99638e+02	2.39000e+03	0.00686065	700.0
2391	6.99643e+02	2.39100e+03	0.00686731	700.0
2392	6.99640e+02	2.39200e+03	0.0068784	700.0
2393	6.99641e+02	2.39300e+03	0.00687934	700.0
2394	6.99647e+02	2.39400e+03	0.00687707	700.0
2395	6.99638e+02	2.39500e+03	0.00687368	700.0
2396	6.99637e+02	2.39600e+03	0.00685514	700.0
2397	6.99646e+02	2.39700e+03	0.00684508	700.0
2398	6.99641e+02	2.39800e+03	0.00683629	700.0
2399	6.99643e+02	2.39900e+03	0.00682736	700.0
2400	6.99642e+02	2.40000e+03	0.00681993	700.0
2401	6.99642e+02	2.40100e+03	0.00681037	700.0
2402	6.99643e+02	2.40200e+03	0.00679957	700.0
2403	6.99640e+02	2.40300e+03	0.00678798	700.0
2404	6.99639e+02	2.40400e+03	0.00677487	700.0
2405	6.99642e+02	2.40500e+03	0.00676593	700.0
2406	6.99640e+02	2.40600e+03	0.00675871	700.0
2407	6.99641e+02	2.40700e+03	0.00675122	700.0
2408	6.99634e+02	2.40800e+03	0.00674548	700.0
2409	6.99637e+02	2.40900e+03	0.00673846	700.0
2410	6.99632e+02	2.41000e+03	0.00673203	700.0
2411	6.99633e+02	2.41100e+03	0.00672641	700.0
2412	6.99632e+02	2.41200e+03	0.00672619	700.0
2413	6.99626e+02	2.41300e+03	0.00672961	700.0
2414	6.99636e+02	2.41400e+03	0.00673694	700.0
2415	6.99637e+02	2.41500e+03	0.00674699	700.0
2416	6.99629e+02	2.41600e+03	0.00677353	700.0
2417	6.99636e+02	2.41700e+03	0.00679628	700.0
2418	6.99633e+02	2.41800e+03	0.00681998	700.0
2419	6.99636e+02	2.41900e+03	0.00684481	700.0
2420	6.99637e+02	2.42000e+03	0.00687658	700.0
2421	6.99630e+02	2.42100e+03	0.00690473	700.0
2422	6.99632e+02	2.42200e+03	0.00693303	700.0
2423	6.99639e+02	2.42300e+03	0.00696094	700.0
2424	6.99626e+02	2.42400e+03	0.0069793	700.0
2425	6.99623e+02	2.42500e+03	0.0069943	700.0
2426	6.99630e+02	2.42600e+03	0.00700467	700.0
2427	6.99625e+02	2.42700e+03	0.0070118	700.0
2428	6.99631e+02	2.42800e+03	0.00700271	700.0
2429	6.99622e+02	2.42900e+03	0.00699936	700.0
2430	6.99628e+02	2.43000e+03	0.00699653	700.0
2431	6.99633e+02	2.43100e+03	0.00699354	700.0
2432	6.99629e+02	2.43200e+03	0.00699006	700.0
2433	6.99627e+02	2.43300e+03	0.00699165	700.0
2434	6.99624e+02	2.43400e+03	0.0069959	700.0
2435	6.99624e+02	2.43500e+03	0.00700141	700.0
2436	6.99630e+02	2.43600e+03	0.00701351	700.0
2437	6.99631e+02	2.43700e+03	0.00701804	700.0
2438	6.99621e+02	2.43800e+03	0.00701734	700.0
2439	6.99618e+02	2.43900e+03	0.00701323	700.0
2440	6.99624e+02	2.44000e+03	0.00699116	700.0
2441	6.99622e+02	2.44100e+03	0.00696844	700.0
2442	6.99619e+02	2.44200e+03	0.00694326	700.0
2443	6.99623e+02	2.44300e+03	0.00691669	700.0
2444	6.99624e+02	2.44400e+03	0.00687971	700.0
2445	6.99628e+02	2.44500e+03	0.00685981	700.0
2446	6.99628e+02	2.44600e+03	0.00685187	700.0
2447	6.99625e+02	2.44700e+03	0.00685081	700.0
2448	6.99621e+02	2.44800e+03	0.0068809	700.0
2449	6.99616e+02	2.44900e+03	0.00690369	700.0
2450	6.99628e+02	2.45000e+03	0.00692547	700.0
2451	6.99628e+02	2.45100e+03	0.00694605	700.0
2452	6.99622e+02	2.45200e+03	0.00697552	700.0
2453	6.99611e+02	2.45300e+03	0.00699301	700.0
2454	6.99609e+02	2.45400e+03	0.0070058	700.0
2455	6.99608e+02	2.45500e+03	0.00701642	700.0
2456	6.99613e+02	2.45600e+03	0.00700641	700.0
2457	6.99615e+02	2.45700e+03	0.00700458	700.0
2458	6.99619e+02	2.45800e+03	0.00700334	700.0
2459	6.99620e+02	2.45900e+03	0.0070016	700.0
2460	6.99627e+02	2.46000e+03	0.0069996	700.0
2461	6.99623e+02	2.46100e+03	0.00700446	700.0
2462	6.99616e+02	2.46200e+03	0.00701614	700.0
2463	6.99616e+02	2.46300e+03	0.00703173	700.0
2464	6.99619e+02	2.46400e+03	0.00705842	700.0
2465	6.99610e+02	2.46500e+03	0.00707816	700.0
2466	6.99604e+02	2.46600e+03	0.00709313	700.0
2467	6.99609e+02	2.46700e+03	0.00710385	700.0
2468	6.99611e+02	2.46800e+03	0.0070966	700.0
2469	6.99605e+02	2.46900e+03	0.0070798	700.0
2470	6.99608e+02	2.47000e+03	0.0070564	700.0
2471	6.99602e+02	2.47100e+03	0.00703007	700.0
2472	6.99607e+02	2.47200e+03	0.00697518	700.0
2473	6.99605e+02	2.47300e+03	0.00694396	700.0
2474	6.99612e+02	2.47400e+03	0.00692319	700.0
2475	6.99610e+02	2.47500e+03	0.00690667	700.0
2476	6.99609e+02	2.47600e+03	0.00691056	700.0
2477	6.99609e+02	2.47700e+03	0.00690835	700.0
2478	6.99607e+02	2.47800e+03	0.00690685	700.0
2479	6.99610e+02	2.47900e+03	0.0069065	700.0
2480	6.99606e+02	2.48000e+03	0.00691568	700.0
2481	6.99612e+02	2.48100e+03	0.00692037	700.0
2482	6.99608e+02	2.48200e+03	0.00692769	700.0
2483	6.99612e+02	2.48300e+03	0.00693814	700.0
2484	6.99606e+02	2.48400e+03	0.0069508	700.0
2485	6.99604e+02	2.48500e+03	0.00696335	700.0
2486	6.99615e+02	2.48600e+03	0.00697604	700.0
2487	6.99602e+02	2.48700e+03	0.00698887	700.0
2488	6.99598e+02	2.48800e+03	0.00700602	700.0
2489	6.99607e+02	2.48900e+03	0.00701967	700.0
2490	6.99608e+02	2.49000e+03	0.00703162	700.0
2491	6.99607e+02	2.49100e+03	0.00704259	700.0
2492	6.99600e+02	2.49200e+03	0.007048	700.0
2493	6.99596e+02	2.49300e+03	0.00705183	700.0
2494	6.99601e+02	2.49400e+03	0.00704965	700.0
2495	6.99603e+02	2.49500e+03	0.00704296	700.0
2496	6.99602e+02	2.49600e+03	0.0070236	700.0
2497	6.99599e+02	2.49700e+03	0.00700749	700.0
2498	6.99597e+02	2.49800e+03	0.00699406	700.0
2499	6.99598e+02	2.49900e+03	0.00698254	700.0
2500	6.99597e+02	2.50000e+03	0.00696284	700.0
2501	6.99586e+02	2.50100e+03	0.00694721	700.0
2502	6.99595e+02	2.50200e+03	0.00693203	700.0
2503	6.99593e+02	2.50300e+03	0.00691649	700.0
2504	6.99598e+02	2.50400e+03	0.00690276	700.0
2505	6.99592e+02	2.50500e+03	0.00688572	700.0
2506	6.99592e+02	2.50600e+03	0.00686676	700.0
2507	6.99594e+02	2.50700e+03	0.00684672	700.0
2508	6.99591e+02	2.50800e+03	0.00682058	700.0
2509	6.99592e+02	2.50900e+03	0.00679713	700.0
2510	6.99587e+02	2.51000e+03	0.00677526	700.0
2511	6.99594e+02	2.51100e+03	0.00675452	700.0
2512	6.99592e+02	2.51200e+03	0.00673976	700.0
2513	6.99589e+02	2.51300e+03	0.00672986	700.0
2514	6.99577e+02	2.51400e+03	0.00672552	700.0
2515	6.99585e+02	2.51500e+03	0.00672549	700.0
2516	6.99582e+02	2.51600e+03	0.00675368	700.0
2517	6.99588e+02	2.51700e+03	0.00677989	700.0
2518	6.99583e+02	2.51800e+03	0.00680893	700.0
2519	6.99580e+02	2.51900e+03	0.00684033	700.0
2520	6.99588e+02	2.52000e+03	0.00689099	700.0
2521	6.99583e+02	2.52100e+03	0.00692827	700.0
2522	6.99581e+02	2.52200e+03	0.00696202	700.0
2523	6.99578e+02	2.52300e+03	0.00699588	700.0
2524	6.99581e+02	2.52400e+03	0.00702025	700.0
2525	6.99584e+02	2.52500e+03	0.00704351	700.0
2526	6.99576e+02	2.52600e+03	0.00706225	700.0
2527	6.99581e+02	2.52700e+03	0.0070776	700.0
2528	6.99589e+02	2.52800e+03	0.0070778	700.0
2529	6.99587e+02	2.52900e+03	0.00707832	700.0
2530	6.99582e+02	2.53000e+03	0.00707523	700.0
2531	6.99590e+02	2.53100e+03	0.00706926	700.0
2532	6.99592e+02	2.53200e+03	0.00704578	700.0
2533	6.99591e+02	2.53300e+03	0.00702803	700.0
2534	6.99587e+02	2.53400e+03	0.00700983	700.0
2535	6.99588e+02	2.53500e+03	0.00699058	700.0
2536	6.99590e+02	2.53600e+03	0.00696566	700.0
2537	6.99582e+02	2.53700e+03	0.00694394	700.0
2538	6.99585e+02	2.53800e+03	0.00692345	700.0
2539	6.99584e+02	2.53900e+03	0.00690356	700.0
2540	6.99585e+02	2.54000e+03	0.00688752	700.0
2541	6.99584e+02	2.54100e+03	0.0068731	700.0
2542	6.99576e+02	2.54200e+03	0.00686111	700.0
2543	6.99587e+02	2.54300e+03	0.00685096	700.0
2544	6.99573e+02	2.54400e+03	0.00685194	700.0
2545	6.99575e+02	2.54500e+03	0.00685223	700.0
2546	6.99572e+02	2.54600e+03	0.006855	700.0
2547	6.99581e+02	2.54700e+03	0.00685971	700.0
2548	6.99582e+02	2.54800e+03	0.00687445	700.0
2549	6.99582e+02	2.54900e+03	0.00688435	700.0
2550	6.99580e+02	2.55000e+03	0.00689167	700.0
2551	6.99584e+02	2.55100e+03	0.00689648	700.0
2552	6.99581e+02	2.55200e+03	0.00688942	700.0
2553	6.99576e+02	2.55300e+03	0.00687835	700.0
2554	6.99575e+02	2.55400e+03	0.0068649	700.0
2555	6.99576e+02	2.55500e+03	0.00685072	700.0
2556	6.99577e+02	2.55600e+03	0.00682561	700.0
2557	6.99585e+02	2.55700e+03	0.00681508	700.0
2558	6.99577e+02	2.55800e+03	0.00681197	700.0
2559	6.99583e+02	2.55900e+03	0.00681271	700.0
2560	6.99583e+02	2.56000e+03	0.00683077	700.0
2561	6.99587e+02	2.56100e+03	0.00683864	700.0
2562	6.99579e+02	2.56200e+03	0.00684081	700.0
2563	6.99587e+02	2.56300e+03	0.00683948	700.0
2564	6.99573e+02	2.56400e+03	0.00683579	700.0
2565	6.99568e+02	2.56500e+03	0.00683169	700.0
2566	6.99564e+02	2.56600e+03	0.00682434	700.0
2567	6.99581e+02	2.56700e+03	0.00681416	700.0
2568	6.99581e+02	2.56800e+03	0.00679736	700.0
2569	6.99581e+02	2.56900e+03	0.00678637	700.0
2570	6.99579e+02	2.57000e+03	0.00677835	700.0
2571	6.99576e+02	2.57100e+03	0.00677199	700.0
2572	6.99570e+02	2.57200e+03	0.00677192	700.0
2573	6.99568e+02	2.57300e+03	0.00677291	700.0
2574	6.99574e+02	2.57400e+03	0.00677571	700.0
2575	6.99577e+02	2.57500e+03	0.00677969	700.0
2576	6.99575e+02	2.57600e+03	0.00679161	700.0
2577	6.99572e+02	2.57700e+03	0.00679862	700.0
2578	6.99568e+02	2.57800e+03	0.00680419	700.0
2579	6.99571e+02	2.57900e+03	0.00680916	700.0
2580	6.99564e+02	2.58000e+03	0.00681038	700.0
2581	6.99570e+02	2.58100e+03	0.00681486	700.0
2582	6.99567e+02	2.58200e+03	0.00682062	700.0
2583	6.99568e+02	2.58300e+03	0.00682534	700.0
2584	6.99573e+02	2.58400e+03	0.00682414	700.0
2585	6.99568e+02	2.58500e+03	0.00682134	700.0
2586	6.99558e+02	2.58600e+03	0.00681733	700.0
2587	6.99559e+02	2.58700e+03	0.00681354	700.0
2588	6.99571e+02	2.58800e+03	0.00681187	700.0
2589	6.99567e+02	2.58900e+03	0.00681934	700.0
2590	6.99569e+02	2.59000e+03	0.00683324	700.0
2591	6.99565e+02	2.59100e+03	0.00685026	700.0
2592	6.99567e+02	2.59200e+03	0.00688451	700.0
2593	6.99561e+02	2.59300e+03	0.00690762	700.0
2594	6.99565e+02	2.59400e+03	0.00692264	700.0
2595	6.99565e+02	2.59500e+03	0.0069316	700.0
2596	6.99567e+02	2.59600e+03	0.00692377	700.0
2597	6.99567e+02	2.59700e+03	0.00691294	700.0
2598	6.99562e+02	2.59800e+03	0.00689812	700.0
2599	6.99556e+02	2.59900e+03	0.00688069	700.0
2600	6.99559e+02	2.60000e+03	0.00683766	700.0
2601	6.99562e+02	2.60100e+03	0.00680872	700.0
2602	6.99562e+02	2.60200e+03	0.0067836	700.0
2603	6.99565e+02	2.60300e+03	0.00675971	700.0
2604	6.99564e+02	2.60400e+03	0.00674414	700.0
2605	6.99557e+02	2.60500e+03	0.00673043	700.0
2606	6.99564e+02	2.60600e+03	0.00672304	700.0
2607	6.99569e+02	2.60700e+03	0.00672092	700.0
2608	6.99557e+02	2.60800e+03	0.00674195	700.0
2609	6.99565e+02	2.60900e+03	0.00676147	700.0
2610	6.99562e+02	2.61000e+03	0.0067824	700.0
2611	6.99562e+02	2.61100e+03	0.00680415	700.0
2612	6.99562e+02	2.61200e+03	0.00684043	700.0
2613	6.99556e+02	2.61300e+03	0.00686408	700.0
2614	6.99562e+02	2.61400e+03	0.00688298	700.0
2615	6.99565e+02	2.61500e+03	0.00689982	700.0
2616	6.99558e+02	2.61600e+03	0.00690278	700.0
2617	6.99564e+02	2.61700e+03	0.00690962	700.0
2618	6.99562e+02	2.61800e+03	0.00691364	700.0
2619	6.99562e+02	2.61900e+03	0.00691365	700.0
2620	6.99558e+02	2.62000e+03	0.00690056	700.0
2621	6.99562e+02	2.62100e+03	0.00689009	700.0
2622	6.99561e+02	2.62200e+03	0.00687909	700.0
2623	6.99566e+02	2.62300e+03	0.00686729	700.0
2624	6.99564e+02	2.62400e+03	0.00684593	700.0
2625	6.99560e+02	2.62500e+03	0.00683054	700.0
2626	6.99555e+02	2.62600e+03	0.0068171	700.0
2627	6.99555e+02	2.62700e+03	0.00680448	700.0
2628	6.99565e+02	2.62800e+03	0.00679819	700.0
2629	6.99560e+02	2.62900e+03	0.00679405	700.0
2630	6.99556e+02	2.63000e+03	0.00679714	700.0
2631	6.99559e+02	2.63100e+03	0.00680578	700.0
2632	6.99557e+02	2.63200e+03	0.0068331	700.0
2633	6.99549e+02	2.63300e+03	0.00686004	700.0
2634	6.99546e+02	2.63400e+03	0.00688714	700.0
2635	6.99552e+02	2.63500e+03	0.00691181	700.0
2636	6.99559e+02	2.63600e+03	0.00694045	700.0
2637	6.99544e+02	2.63700e+03	0.00695731	700.0
2638	6.99545e+02	2.63800e+03	0.00696935	700.0
2639	6.99558e+02	2.63900e+03	0.00697911	700.0
2640	6.99554e+02	2.64000e+03	0.00696585	700.0
2641	6.99552e+02	2.64100e+03	0.00696289	700.0
2642	6.99552e+02	2.64200e+03	0.00695859	700.0
2643	6.99559e+02	2.64300e+03	0.00695009	700.0
2644	6.99555e+02	2.64400e+03	0.00692656	700.0
2645	6.99554e+02	2.64500e+03	0.00689692	700.0
2646	6.99544e+02	2.64600e+03	0.00686007	700.0
2647	6.99553e+02	2.64700e+03	0.00681961	700.0
2648	6.99557e+02	2.64800e+03	0.00675476	700.0
2649	6.99553e+02	2.64900e+03	0.0067042	700.0
2650	6.99553e+02	2.65000e+03	0.00665819	700.0
2651	6.99555e+02	2.65100e+03	0.00661419	700.0
2652	6.99553e+02	2.65200e+03	0.0065823	700.0
2653	6.99548e+02	2.65300e+03	0.0065544	700.0
2654	6.99548e+02	2.65400e+03	0.00653268	700.0
2655	6.99548e+02	2.65500e+03	0.00651531	700.0
2656	6.99554e+02	2.65600e+03	0.00652973	700.0
2657	6.99551e+02	2.65700e+03	0.00654162	700.0
2658	6.99543e+02	2.65800e+03	0.00655712	700.0
2659	6.99548e+02	2.65900e+03	0.00657518	700.0
2660	6.99558e+02	2.66000e+03	0.00661274	700.0
2661	6.99546e+02	2.66100e+03	0.00663727	700.0
2662	6.99546e+02	2.66200e+03	0.00665807	700.0
2663	6.99547e+02	2.66300e+03	0.0066779	700.0
2664	6.99553e+02	2.66400e+03	0.0066937	700.0
2665	6.99547e+02	2.66500e+03	0.00671187	700.0
2666	6.99549e+02	2.66600e+03	0.00672711	700.0
2667	6.99543e+02	2.66700e+03	0.00673966	700.0
2668	6.99553e+02	2.66800e+03	0.00674448	700.0
2669	6.99548e+02	2.66900e+03	0.00674487	700.0
2670	6.99548e+02	2.67000e+03	0.00673796	700.0
2671	6.99552e+02	2.67100e+03	0.00672611	700.0
2672	6.99555e+02	2.67200e+03	0.00669833	700.0
2673	6.99543e+02	2.67300e+03	0.00667999	700.0
2674	6.99546e+02	2.67400e+03	0.00666439	700.0
2675	6.99543e+02	2.67500e+03	0.0066499	700.0
2676	6.99544e+02	2.67600e+03	0.00664058	700.0
2677	6.99545e+02	2.67700e+03	0.006635	700.0
2678	6.99551e+02	2.67800e+03	0.00663369	700.0
2679	6.99544e+02	2.67900e+03	0.00663524	700.0
2680	6.99546e+02	2.68000e+03	0.00665354	700.0
2681	6.99537e+02	2.68100e+03	0.00666749	700.0
2682	6.99547e+02	2.68200e+03	0.00668174	700.0
2683	6.99541e+02	2.68300e+03	0.00669655	700.0
2684	6.99544e+02	2.68400e+03	0.00671522	700.0
2685	6.99536e+02	2.68500e+03	0.00672505	700.0
2686	6.99543e+02	2.68600e+03	0.00672778	700.0
2687	6.99547e+02	2.68700e+03	0.00672683	700.0
2688	6.99546e+02	2.68800e+03	0.00671096	700.0
2689	6.99534e+02	2.68900e+03	0.00669905	700.0
2690	6.99547e+02	2.69000e+03	0.00668628	700.0
2691	6.99542e+02	2.69100e+03	0.00667245	700.0
2692	6.99535e+02	2.69200e+03	0.00665274	700.0
2693	6.99542e+02	2.69300e+03	0.00664215	700.0
2694	6.99550e+02	2.69400e+03	0.00663614	700.0
2695	6.99539e+02	2.69500e+03	0.00663127	700.0
2696	6.99539e+02	2.69600e+03	0.0066356	700.0
2697	6.99535e+02	2.69700e+03	0.00663853	700.0
2698	6.99541e+02	2.69800e+03	0.0066451	700.0
2699	6.99532e+02	2.69900e+03	0.00665405	700.0
2700	6.99541e+02	2.70000e+03	0.00666862	700.0
2701	6.99537e+02	2.70100e+03	0.00668029	700.0
2702	6.99548e+02	2.70200e+03	0.00669151	700.0
2703	6.99534e+02	2.70300e+03	0.00670275	700.0
2704	6.99540e+02	2.70400e+03	0.00671575	700.0
2705	6.99539e+02	2.70500e+03	0.0067272	700.0
2706	6.99539e+02	2.70600e+03	0.00673746	700.0
2707	6.99545e+02	2.70700e+03	0.0067468	700.0
2708	6.99537e+02	2.70800e+03	0.0067516	700.0
2709	6.99539e+02	2.70900e+03	0.00675538	700.0
2710	6.99536e+02	2.71000e+03	0.00675714	700.0
2711	6.99541e+02	2.71100e+03	0.00675669	700.0
2712	6.99539e+02	2.71200e+03	0.00675389	700.0
2713	6.99534e+02	2.71300e+03	0.00674863	700.0
2714	6.99535e+02	2.71400e+03	0.00674153	700.0
2715	6.99540e+02	2.71500e+03	0.00673356	700.0
2716	6.99539e+02	2.71600e+03	0.00672564	700.0
2717	6.99546e+02	2.71700e+03	0.00671844	700.0
2718	6.99541e+02	2.71800e+03	0.00671224	700.0
2719	6.99537e+02	2.71900e+03	0.00670713	700.0
2720	6.99539e+02	2.72000e+03	0.00670277	700.0
