Index	Ts	t	Weight	Tr
[#]	[°C]	[s]	[mg]	[°C]
682	1.30468e+02	6.82000e+02	3.02956	131.0
683	1.30962e+02	6.83000e+02	3.02953	131.5
684	1.31479e+02	6.84000e+02	3.0295	132.0
685	1.31980e+02	6.85000e+02	3.02946	132.5
686	1.32478e+02	6.86000e+02	3.02943	133.0
687	1.32956e+02	6.87000e+02	3.0294	133.5
688	1.33428e+02	6.88000e+02	3.02936	134.0
689	1.33891e+02	6.89000e+02	3.02933	134.5
690	1.34388e+02	6.90000e+02	3.02929	135.0
691	1.34910e+02	6.91000e+02	3.02924	135.5
692	1.35394e+02	6.92000e+02	3.02919	136.0
693	1.35885e+02	6.93000e+02	3.02914	136.5
694	1.36400e+02	6.94000e+02	3.02908	137.0
695	1.36887e+02	6.95000e+02	3.02902	137.5
696	1.37391e+02	6.96000e+02	3.02895	138.0
697	1.37885e+02	6.97000e+02	3.02887	138.5
698	1.38387e+02	6.98000e+02	3.0288	139.0
699	1.38894e+02	6.99000e+02	3.02871	139.5
700	1.39389e+02	7.00000e+02	3.02862	140.0
701	1.39893e+02	7.01000e+02	3.02853	140.5
702	1.40397e+02	7.02000e+02	3.02844	141.0
703	1.40898e+02	7.03000e+02	3.02835	141.5
704	1.41400e+02	7.04000e+02	3.02827	142.0
705	1.41904e+02	7.05000e+02	3.02819	142.5
706	1.42393e+02	7.06000e+02	3.02811	143.0
707	1.42905e+02	7.07000e+02	3.02803	143.5
708	1.43398e+02	7.08000e+02	3.02795	144.0
709	1.43926e+02	7.09000e+02	3.02787	144.5
710	1.44412e+02	7.10000e+02	3.02777	145.0
711	1.44912e+02	7.11000e+02	3.02767	145.5
712	1.45409e+02	7.12000e+02	3.02753	146.0
713	1.45925e+02	7.13000e+02	3.02738	146.5
714	1.46415e+02	7.14000e+02	3.02723	147.0
715	1.46919e+02	7.15000e+02	3.02707	147.5
716	1.47420e+02	7.16000e+02	3.02686	148.0
717	1.47927e+02	7.17000e+02	3.02667	148.5
718	1.48427e+02	7.18000e+02	3.02648	149.0
719	1.48931e+02	7.19000e+02	3.02629	149.5
720	1.49429e+02	7.20000e+02	3.0261	150.0
721	1.49931e+02	7.21000e+02	3.02592	150.5
722	1.50427e+02	7.22000e+02	3.02574	151.0
723	1.50930e+02	7.23000e+02	3.02556	151.5
724	1.51430e+02	7.24000e+02	3.0254	152.0
725	1.51927e+02	7.25000e+02	3.02522	152.5
726	1.52424e+02	7.26000e+02	3.02504	153.0
727	1.52939e+02	7.27000e+02	3.02486	153.5
728	1.53428e+02	7.28000e+02	3.02467	154.0
729	1.53927e+02	7.29000e+02	3.02447	154.5
730	1.54430e+02	7.30000e+02	3.02427	155.0
731	1.54922e+02	7.31000e+02	3.02406	155.5
732	1.55435e+02	7.32000e+02	3.02384	156.0
733	1.55941e+02	7.33000e+02	3.02361	156.5
734	1.56444e+02	7.34000e+02	3.02338	157.0
735	1.56938e+02	7.35000e+02	3.02315	157.5
736	1.57454e+02	7.36000e+02	3.02289	158.0
737	1.57953e+02	7.37000e+02	3.02265	158.5
738	1.58455e+02	7.38000e+02	3.0224	159.0
739	1.58949e+02	7.39000e+02	3.02214	159.5
740	1.59451e+02	7.40000e+02	3.02187	160.0
741	1.59954e+02	7.41000e+02	3.0216	160.5
742	1.60462e+02	7.42000e+02	3.02132	161.0
743	1.60971e+02	7.43000e+02	3.02105	161.5
744	1.61466e+02	7.44000e+02	3.02075	162.0
745	1.61974e+02	7.45000e+02	3.02045	162.5
746	1.62470e+02	7.46000e+02	3.02015	163.0
747	1.62976e+02	7.47000e+02	3.01985	163.5
748	1.63504e+02	7.48000e+02	3.01953	164.0
749	1.63996e+02	7.49000e+02	3.01923	164.5
750	1.64496e+02	7.50000e+02	3.01892	165.0
751	1.65000e+02	7.51000e+02	3.0186	165.5
752	1.65502e+02	7.52000e+02	3.01828	166.0
753	1.66008e+02	7.53000e+02	3.01795	166.5
754	1.66510e+02	7.54000e+02	3.01761	167.0
755	1.67018e+02	7.55000e+02	3.01726	167.5
756	1.67523e+02	7.56000e+02	3.01687	168.0
757	1.68030e+02	7.57000e+02	3.01649	168.5
758	1.68517e+02	7.58000e+02	3.01609	169.0
759	1.69038e+02	7.59000e+02	3.01568	169.5
760	1.69560e+02	7.60000e+02	3.01523	170.0
761	1.70043e+02	7.61000e+02	3.01478	170.5
762	1.70545e+02	7.62000e+02	3.01433	171.0
763	1.71043e+02	7.63000e+02	3.01386	171.5
764	1.71552e+02	7.64000e+02	3.01335	172.0
765	1.72060e+02	7.65000e+02	3.01284	172.5
766	1.72570e+02	7.66000e+02	3.01233	173.0
767	1.73084e+02	7.67000e+02	3.0118	173.5
768	1.73574e+02	7.68000e+02	3.01123	174.0
769	1.74085e+02	7.69000e+02	3.01066	174.5
770	1.74598e+02	7.70000e+02	3.01007	175.0
771	1.75097e+02	7.71000e+02	3.00947	175.5
772	1.75605e+02	7.72000e+02	3.0088	176.0
773	1.76102e+02	7.73000e+02	3.00813	176.5
774	1.76610e+02	7.74000e+02	3.00744	177.0
775	1.77117e+02	7.75000e+02	3.00673	177.5
776	1.77630e+02	7.76000e+02	3.00592	178.0
777	1.78112e+02	7.77000e+02	3.00511	178.5
778	1.78627e+02	7.78000e+02	3.00428	179.0
779	1.79138e+02	7.79000e+02	3.00342	179.5
780	1.79645e+02	7.80000e+02	3.00244	180.0
781	1.80164e+02	7.81000e+02	3.00147	180.5
782	1.80658e+02	7.82000e+02	3.00047	181.0
783	1.81172e+02	7.83000e+02	2.99945	181.5
784	1.81672e+02	7.84000e+02	2.99829	182.0
785	1.82192e+02	7.85000e+02	2.99714	182.5
786	1.82701e+02	7.86000e+02	2.99598	183.0
787	1.83202e+02	7.87000e+02	2.99478	183.5
788	1.83716e+02	7.88000e+02	2.99346	184.0
789	1.84217e+02	7.89000e+02	2.99217	184.5
790	1.84730e+02	7.90000e+02	2.99086	185.0
791	1.85248e+02	7.91000e+02	2.98953	185.5
792	1.85754e+02	7.92000e+02	2.98811	186.0
793	1.86253e+02	7.93000e+02	2.9867	186.5
794	1.86770e+02	7.94000e+02	2.98527	187.0
795	1.87278e+02	7.95000e+02	2.98381	187.5
796	1.87781e+02	7.96000e+02	2.98227	188.0
797	1.88284e+02	7.97000e+02	2.98073	188.5
798	1.88781e+02	7.98000e+02	2.97918	189.0
799	1.89302e+02	7.99000e+02	2.9776	189.5
800	1.89806e+02	8.00000e+02	2.97594	190.0
801	1.90318e+02	8.01000e+02	2.97429	190.5
802	1.90830e+02	8.02000e+02	2.97264	191.0
803	1.91338e+02	8.03000e+02	2.97096	191.5
804	1.91841e+02	8.04000e+02	2.96922	192.0
805	1.92363e+02	8.05000e+02	2.96749	192.5
806	1.92857e+02	8.06000e+02	2.96576	193.0
807	1.93365e+02	8.07000e+02	2.96401	193.5
808	1.93881e+02	8.08000e+02	2.9622	194.0
809	1.94378e+02	8.09000e+02	2.96042	194.5
810	1.94895e+02	8.10000e+02	2.95862	195.0
811	1.95407e+02	8.11000e+02	2.95683	195.5
812	1.95905e+02	8.12000e+02	2.95502	196.0
813	1.96423e+02	8.13000e+02	2.95323	196.5
814	1.96923e+02	8.14000e+02	2.95146	197.0
815	1.97434e+02	8.15000e+02	2.94969	197.5
816	1.97944e+02	8.16000e+02	2.94797	198.0
817	1.98455e+02	8.17000e+02	2.94625	198.5
818	1.98966e+02	8.18000e+02	2.94456	199.0
819	1.99477e+02	8.19000e+02	2.94288	199.5
820	1.99994e+02	8.20000e+02	2.94129	200.0
821	2.00499e+02	8.21000e+02	2.93969	200.5
822	2.01005e+02	8.22000e+02	2.93812	201.0
823	2.01521e+02	8.23000e+02	2.93657	201.5
824	2.02028e+02	8.24000e+02	2.93512	202.0
825	2.02540e+02	8.25000e+02	2.93366	202.5
826	2.03055e+02	8.26000e+02	2.93222	203.0
827	2.03566e+02	8.27000e+02	2.93081	203.5
828	2.04077e+02	8.28000e+02	2.92951	204.0
829	2.04574e+02	8.29000e+02	2.9282	204.5
830	2.05077e+02	8.30000e+02	2.92691	205.0
831	2.05602e+02	8.31000e+02	2.92565	205.5
832	2.06111e+02	8.32000e+02	2.92451	206.0
833	2.06612e+02	8.33000e+02	2.92335	206.5
834	2.07134e+02	8.34000e+02	2.92222	207.0
835	2.07628e+02	8.35000e+02	2.92112	207.5
836	2.08144e+02	8.36000e+02	2.92015	208.0
837	2.08653e+02	8.37000e+02	2.91917	208.5
838	2.09165e+02	8.38000e+02	2.91822	209.0
839	2.09667e+02	8.39000e+02	2.9173	209.5
840	2.10193e+02	8.40000e+02	2.91651	210.0
841	2.10709e+02	8.41000e+02	2.91571	210.5
842	2.11210e+02	8.42000e+02	2.91492	211.0
843	2.11724e+02	8.43000e+02	2.91415	211.5
844	2.12229e+02	8.44000e+02	2.9135	212.0
845	2.12753e+02	8.45000e+02	2.91283	212.5
846	2.13250e+02	8.46000e+02	2.91218	213.0
847	2.13751e+02	8.47000e+02	2.91155	213.5
848	2.14270e+02	8.48000e+02	2.91101	214.0
849	2.14783e+02	8.49000e+02	2.91045	214.5
850	2.15285e+02	8.50000e+02	2.9099	215.0
851	2.15804e+02	8.51000e+02	2.90938	215.5
852	2.16313e+02	8.52000e+02	2.90892	216.0
853	2.16824e+02	8.53000e+02	2.90844	216.5
854	2.17334e+02	8.54000e+02	2.90798	217.0
855	2.17851e+02	8.55000e+02	2.90752	217.5
856	2.18367e+02	8.56000e+02	2.90712	218.0
857	2.18876e+02	8.57000e+02	2.90671	218.5
858	2.19388e+02	8.58000e+02	2.9063	219.0
859	2.19888e+02	8.59000e+02	2.9059	219.5
860	2.20399e+02	8.60000e+02	2.90554	220.0
861	2.20914e+02	8.61000e+02	2.90516	220.5
862	2.21427e+02	8.62000e+02	2.90478	221.0
863	2.21934e+02	8.63000e+02	2.90441	221.5
864	2.22438e+02	8.64000e+02	2.90405	222.0
865	2.22958e+02	8.65000e+02	2.90368	222.5
866	2.23479e+02	8.66000e+02	2.90332	223.0
867	2.23996e+02	8.67000e+02	2.90296	223.5
868	2.24501e+02	8.68000e+02	2.9026	224.0
869	2.25009e+02	8.69000e+02	2.90224	224.5
870	2.25527e+02	8.70000e+02	2.90188	225.0
871	2.26037e+02	8.71000e+02	2.90152	225.5
872	2.26547e+02	8.72000e+02	2.90116	226.0
873	2.27060e+02	8.73000e+02	2.9008	226.5
874	2.27569e+02	8.74000e+02	2.90044	227.0
875	2.28077e+02	8.75000e+02	2.90008	227.5
876	2.28586e+02	8.76000e+02	2.89971	228.0
877	2.29077e+02	8.77000e+02	2.89935	228.5
878	2.29575e+02	8.78000e+02	2.89899	229.0
879	2.30075e+02	8.79000e+02	2.89863	229.5
880	2.30585e+02	8.80000e+02	2.89827	230.0
881	2.31091e+02	8.81000e+02	2.89792	230.5
882	2.31590e+02	8.82000e+02	2.89757	231.0
883	2.32103e+02	8.83000e+02	2.89721	231.5
884	2.32609e+02	8.84000e+02	2.89686	232.0
885	2.33128e+02	8.85000e+02	2.8965	232.5
886	2.33631e+02	8.86000e+02	2.89614	233.0
887	2.34139e+02	8.87000e+02	2.89578	233.5
888	2.34655e+02	8.88000e+02	2.89542	234.0
889	2.35168e+02	8.89000e+02	2.89506	234.5
890	2.35674e+02	8.90000e+02	2.89469	235.0
891	2.36196e+02	8.91000e+02	2.89433	235.5
892	2.36710e+02	8.92000e+02	2.89396	236.0
893	2.37211e+02	8.93000e+02	2.89359	236.5
894	2.37720e+02	8.94000e+02	2.89322	237.0
895	2.38224e+02	8.95000e+02	2.89285	237.5
896	2.38712e+02	8.96000e+02	2.89247	238.0
897	2.39206e+02	8.97000e+02	2.89209	238.5
898	2.39711e+02	8.98000e+02	2.89172	239.0
899	2.40225e+02	8.99000e+02	2.89135	239.5
900	2.40713e+02	9.00000e+02	2.89099	240.0
901	2.41205e+02	9.01000e+02	2.89063	240.5
902	2.41713e+02	9.02000e+02	2.89028	241.0
903	2.42215e+02	9.03000e+02	2.88993	241.5
904	2.42709e+02	9.04000e+02	2.8896	242.0
905	2.43209e+02	9.05000e+02	2.88926	242.5
906	2.43717e+02	9.06000e+02	2.88894	243.0
907	2.44224e+02	9.07000e+02	2.88861	243.5
908	2.44729e+02	9.08000e+02	2.88831	244.0
909	2.45228e+02	9.09000e+02	2.888	244.5
910	2.45740e+02	9.10000e+02	2.88769	245.0
911	2.46244e+02	9.11000e+02	2.88739	245.5
912	2.46748e+02	9.12000e+02	2.8871	246.0
913	2.47256e+02	9.13000e+02	2.88681	246.5
914	2.47763e+02	9.14000e+02	2.88652	247.0
915	2.48269e+02	9.15000e+02	2.88624	247.5
916	2.48779e+02	9.16000e+02	2.88597	248.0
917	2.49283e+02	9.17000e+02	2.88569	248.5
918	2.49787e+02	9.18000e+02	2.88542	249.0
919	2.50304e+02	9.19000e+02	2.88514	249.5
920	2.50813e+02	9.20000e+02	2.88488	250.0
921	2.51326e+02	9.21000e+02	2.88461	250.5
922	2.51845e+02	9.22000e+02	2.88435	251.0
923	2.52364e+02	9.23000e+02	2.88408	251.5
924	2.52891e+02	9.24000e+02	2.88383	252.0
925	2.53453e+02	9.25000e+02	2.88358	252.5
926	2.53946e+02	9.26000e+02	2.88332	253.0
927	2.54450e+02	9.27000e+02	2.88307	253.5
928	2.54956e+02	9.28000e+02	2.88283	254.0
929	2.55477e+02	9.29000e+02	2.88258	254.5
930	2.56001e+02	9.30000e+02	2.88233	255.0
931	2.56543e+02	9.31000e+02	2.88209	255.5
932	2.57070e+02	9.32000e+02	2.88184	256.0
933	2.57586e+02	9.33000e+02	2.88159	256.5
934	2.58109e+02	9.34000e+02	2.88134	257.0
935	2.58622e+02	9.35000e+02	2.88109	257.5
936	2.59157e+02	9.36000e+02	2.88084	258.0
937	2.59662e+02	9.37000e+02	2.88059	258.5
938	2.60177e+02	9.38000e+02	2.88034	259.0
939	2.60685e+02	9.39000e+02	2.88009	259.5
940	2.61189e+02	9.40000e+02	2.87984	260.0
941	2.61688e+02	9.41000e+02	2.8796	260.5
942	2.62214e+02	9.42000e+02	2.87936	261.0
943	2.62711e+02	9.43000e+02	2.87913	261.5
944	2.63237e+02	9.44000e+02	2.8789	262.0
945	2.63746e+02	9.45000e+02	2.87868	262.5
946	2.64260e+02	9.46000e+02	2.87845	263.0
947	2.64761e+02	9.47000e+02	2.87821	263.5
948	2.65277e+02	9.48000e+02	2.87798	264.0
949	2.65795e+02	9.49000e+02	2.87774	264.5
950	2.66292e+02	9.50000e+02	2.8775	265.0
951	2.66787e+02	9.51000e+02	2.87725	265.5
952	2.67278e+02	9.52000e+02	2.87697	266.0
953	2.67786e+02	9.53000e+02	2.8767	266.5
954	2.68304e+02	9.54000e+02	2.87642	267.0
955	2.68829e+02	9.55000e+02	2.87614	267.5
956	2.69364e+02	9.56000e+02	2.87583	268.0
957	2.69877e+02	9.57000e+02	2.87552	268.5
958	2.70415e+02	9.58000e+02	2.87522	269.0
959	2.70917e+02	9.59000e+02	2.87491	269.5
960	2.71441e+02	9.60000e+02	2.87459	270.0
961	2.71936e+02	9.61000e+02	2.87428	270.5
962	2.72418e+02	9.62000e+02	2.87396	271.0
963	2.72936e+02	9.63000e+02	2.87364	271.5
964	2.73446e+02	9.64000e+02	2.87332	272.0
965	2.73949e+02	9.65000e+02	2.87299	272.5
966	2.74486e+02	9.66000e+02	2.87267	273.0
967	2.75010e+02	9.67000e+02	2.87234	273.5
968	2.75503e+02	9.68000e+02	2.87201	274.0
969	2.76023e+02	9.69000e+02	2.87167	274.5
970	2.76520e+02	9.70000e+02	2.87133	275.0
971	2.77008e+02	9.71000e+02	2.87099	275.5
972	2.77549e+02	9.72000e+02	2.87063	276.0
973	2.78034e+02	9.73000e+02	2.87026	276.5
974	2.78561e+02	9.74000e+02	2.86989	277.0
975	2.79062e+02	9.75000e+02	2.86951	277.5
976	2.79609e+02	9.76000e+02	2.86909	278.0
977	2.80115e+02	9.77000e+02	2.86867	278.5
978	2.80606e+02	9.78000e+02	2.86825	279.0
979	2.81089e+02	9.79000e+02	2.86782	279.5
980	2.81593e+02	9.80000e+02	2.86735	280.0
981	2.82112e+02	9.81000e+02	2.86688	280.5
982	2.82625e+02	9.82000e+02	2.86641	281.0
983	2.83140e+02	9.83000e+02	2.86592	281.5
984	2.83659e+02	9.84000e+02	2.86539	282.0
985	2.84167e+02	9.85000e+02	2.86486	282.5
986	2.84680e+02	9.86000e+02	2.86431	283.0
987	2.85199e+02	9.87000e+02	2.86375	283.5
988	2.85700e+02	9.88000e+02	2.86313	284.0
989	2.86180e+02	9.89000e+02	2.86252	284.5
990	2.86689e+02	9.90000e+02	2.8619	285.0
991	2.87210e+02	9.91000e+02	2.86127	285.5
992	2.87721e+02	9.92000e+02	2.86058	286.0
993	2.88210e+02	9.93000e+02	2.8599	286.5
994	2.88731e+02	9.94000e+02	2.85919	287.0
995	2.89237e+02	9.95000e+02	2.85847	287.5
996	2.89742e+02	9.96000e+02	2.85766	288.0
997	2.90245e+02	9.97000e+02	2.85686	288.5
998	2.90766e+02	9.98000e+02	2.85604	289.0
999	2.91279e+02	9.99000e+02	2.85521	289.5
1000	2.91816e+02	1.00000e+03	2.85428	290.0
1001	2.92325e+02	1.00100e+03	2.85337	290.5
1002	2.92828e+02	1.00200e+03	2.85244	291.0
1003	2.93313e+02	1.00300e+03	2.8515	291.5
1004	2.93855e+02	1.00400e+03	2.85047	292.0
1005	2.94394e+02	1.00500e+03	2.84946	292.5
1006	2.94912e+02	1.00600e+03	2.84842	293.0
1007	2.95437e+02	1.00700e+03	2.84737	293.5
1008	2.95929e+02	1.00800e+03	2.84622	294.0
1009	2.96439e+02	1.00900e+03	2.84508	294.5
1010	2.96941e+02	1.01000e+03	2.84391	295.0
1011	2.97465e+02	1.01100e+03	2.84273	295.5
1012	2.97989e+02	1.01200e+03	2.84143	296.0
1013	2.98494e+02	1.01300e+03	2.84015	296.5
1014	2.99001e+02	1.01400e+03	2.83885	297.0
1015	2.99541e+02	1.01500e+03	2.83753	297.5
1016	3.00048e+02	1.01600e+03	2.8361	298.0
1017	3.00560e+02	1.01700e+03	2.83467	298.5
1018	3.01039e+02	1.01800e+03	2.83321	299.0
1019	3.01575e+02	1.01900e+03	2.83173	299.5
1020	3.02139e+02	1.02000e+03	2.83012	300.0
1021	3.02625e+02	1.02100e+03	2.82852	300.5
1022	3.03131e+02	1.02200e+03	2.8269	301.0
1023	3.03641e+02	1.02300e+03	2.82526	301.5
1024	3.04190e+02	1.02400e+03	2.8235	302.0
1025	3.04799e+02	1.02500e+03	2.82176	302.5
1026	3.05356e+02	1.02600e+03	2.82001	303.0
1027	3.05917e+02	1.02700e+03	2.81823	303.5
1028	3.06394e+02	1.02800e+03	2.81637	304.0
1029	3.06861e+02	1.02900e+03	2.81452	304.5
1030	3.07323e+02	1.03000e+03	2.81266	305.0
1031	3.07834e+02	1.03100e+03	2.81078	305.5
1032	3.08301e+02	1.03200e+03	2.80881	306.0
1033	3.08781e+02	1.03300e+03	2.80687	306.5
1034	3.09290e+02	1.03400e+03	2.8049	307.0
1035	3.09794e+02	1.03500e+03	2.80292	307.5
1036	3.10319e+02	1.03600e+03	2.80086	308.0
1037	3.10796e+02	1.03700e+03	2.79881	308.5
1038	3.11289e+02	1.03800e+03	2.79674	309.0
1039	3.11787e+02	1.03900e+03	2.79466	309.5
1040	3.12272e+02	1.04000e+03	2.7925	310.0
1041	3.12770e+02	1.04100e+03	2.79035	310.5
1042	3.13281e+02	1.04200e+03	2.7882	311.0
1043	3.13778e+02	1.04300e+03	2.78603	311.5
1044	3.14280e+02	1.04400e+03	2.78381	312.0
1045	3.14789e+02	1.04500e+03	2.78161	312.5
1046	3.15290e+02	1.04600e+03	2.7794	313.0
1047	3.15793e+02	1.04700e+03	2.7772	313.5
1048	3.16300e+02	1.04800e+03	2.77498	314.0
1049	3.16804e+02	1.04900e+03	2.77276	314.5
1050	3.17322e+02	1.05000e+03	2.77053	315.0
1051	3.17816e+02	1.05100e+03	2.76831	315.5
1052	3.18317e+02	1.05200e+03	2.76606	316.0
1053	3.18833e+02	1.05300e+03	2.76382	316.5
1054	3.19348e+02	1.05400e+03	2.76157	317.0
1055	3.19858e+02	1.05500e+03	2.75933	317.5
1056	3.20371e+02	1.05600e+03	2.75706	318.0
1057	3.20867e+02	1.05700e+03	2.75481	318.5
1058	3.21387e+02	1.05800e+03	2.75255	319.0
1059	3.21900e+02	1.05900e+03	2.75028	319.5
1060	3.22410e+02	1.06000e+03	2.748	320.0
1061	3.22918e+02	1.06100e+03	2.74571	320.5
1062	3.23408e+02	1.06200e+03	2.74342	321.0
1063	3.23897e+02	1.06300e+03	2.74111	321.5
1064	3.24384e+02	1.06400e+03	2.73875	322.0
1065	3.24880e+02	1.06500e+03	2.73639	322.5
1066	3.25369e+02	1.06600e+03	2.73401	323.0
1067	3.25848e+02	1.06700e+03	2.73162	323.5
1068	3.26339e+02	1.06800e+03	2.72915	324.0
1069	3.26823e+02	1.06900e+03	2.72668	324.5
1070	3.27324e+02	1.07000e+03	2.7242	325.0
1071	3.27831e+02	1.07100e+03	2.7217	325.5
1072	3.28338e+02	1.07200e+03	2.71912	326.0
1073	3.28830e+02	1.07300e+03	2.71653	326.5
1074	3.29337e+02	1.07400e+03	2.71391	327.0
1075	3.29858e+02	1.07500e+03	2.71126	327.5
1076	3.30365e+02	1.07600e+03	2.70847	328.0
1077	3.30851e+02	1.07700e+03	2.70568	328.5
1078	3.31355e+02	1.07800e+03	2.70284	329.0
1079	3.31857e+02	1.07900e+03	2.69995	329.5
1080	3.32359e+02	1.08000e+03	2.69685	330.0
1081	3.32857e+02	1.08100e+03	2.69375	330.5
1082	3.33351e+02	1.08200e+03	2.69058	331.0
1083	3.33845e+02	1.08300e+03	2.68734	331.5
1084	3.34356e+02	1.08400e+03	2.68378	332.0
1085	3.34859e+02	1.08500e+03	2.68023	332.5
1086	3.35365e+02	1.08600e+03	2.67661	333.0
1087	3.35899e+02	1.08700e+03	2.67291	333.5
1088	3.36422e+02	1.08800e+03	2.66883	334.0
1089	3.36929e+02	1.08900e+03	2.66481	334.5
1090	3.37430e+02	1.09000e+03	2.66071	335.0
1091	3.37935e+02	1.09100e+03	2.65653	335.5
1092	3.38432e+02	1.09200e+03	2.65198	336.0
1093	3.38949e+02	1.09300e+03	2.64747	336.5
1094	3.39459e+02	1.09400e+03	2.64287	337.0
1095	3.39964e+02	1.09500e+03	2.63819	337.5
1096	3.40478e+02	1.09600e+03	2.6331	338.0
1097	3.40968e+02	1.09700e+03	2.62804	338.5
1098	3.41462e+02	1.09800e+03	2.62288	339.0
1099	3.41963e+02	1.09900e+03	2.61761	339.5
1100	3.42461e+02	1.10000e+03	2.61186	340.0
1101	3.42935e+02	1.10100e+03	2.60615	340.5
1102	3.43409e+02	1.10200e+03	2.60031	341.0
1103	3.43891e+02	1.10300e+03	2.59437	341.5
1104	3.44376e+02	1.10400e+03	2.58786	342.0
1105	3.44850e+02	1.10500e+03	2.58141	342.5
1106	3.45315e+02	1.10600e+03	2.57483	343.0
1107	3.45784e+02	1.10700e+03	2.56812	343.5
1108	3.46281e+02	1.10800e+03	2.56079	344.0
1109	3.46774e+02	1.10900e+03	2.55352	344.5
1110	3.47261e+02	1.11000e+03	2.5461	345.0
1111	3.47763e+02	1.11100e+03	2.53855	345.5
1112	3.48262e+02	1.11200e+03	2.53031	346.0
1113	3.48781e+02	1.11300e+03	2.52216	346.5
1114	3.49272e+02	1.11400e+03	2.51385	347.0
1115	3.49786e+02	1.11500e+03	2.50541	347.5
1116	3.50305e+02	1.11600e+03	2.49623	348.0
1117	3.50807e+02	1.11700e+03	2.48713	348.5
1118	3.51347e+02	1.11800e+03	2.47786	349.0
1119	3.51832e+02	1.11900e+03	2.46844	349.5
1120	3.52310e+02	1.12000e+03	2.45821	350.0
1121	3.52809e+02	1.12100e+03	2.44808	350.5
1122	3.53328e+02	1.12200e+03	2.43777	351.0
1123	3.53822e+02	1.12300e+03	2.4273	351.5
1124	3.54301e+02	1.12400e+03	2.41599	352.0
1125	3.54789e+02	1.12500e+03	2.40478	352.5
1126	3.55283e+02	1.12600e+03	2.39337	353.0
1127	3.55773e+02	1.12700e+03	2.3818	353.5
1128	3.56286e+02	1.12800e+03	2.36936	354.0
1129	3.56786e+02	1.12900e+03	2.35703	354.5
1130	3.57298e+02	1.13000e+03	2.34452	355.0
1131	3.57785e+02	1.13100e+03	2.33184	355.5
1132	3.58295e+02	1.13200e+03	2.31829	356.0
1133	3.58805e+02	1.13300e+03	2.30486	356.5
1134	3.59322e+02	1.13400e+03	2.29125	357.0
1135	3.59840e+02	1.13500e+03	2.27746	357.5
1136	3.60368e+02	1.13600e+03	2.26281	358.0
1137	3.60860e+02	1.13700e+03	2.24828	358.5
1138	3.61351e+02	1.13800e+03	2.23357	359.0
1139	3.61895e+02	1.13900e+03	2.2187	359.5
1140	3.62409e+02	1.14000e+03	2.20298	360.0
1141	3.62907e+02	1.14100e+03	2.18738	360.5
1142	3.63403e+02	1.14200e+03	2.17161	361.0
1143	3.63899e+02	1.14300e+03	2.15567	361.5
1144	3.64409e+02	1.14400e+03	2.13889	362.0
1145	3.64925e+02	1.14500e+03	2.12223	362.5
1146	3.65435e+02	1.14600e+03	2.1054	363.0
1147	3.65897e+02	1.14700e+03	2.08842	363.5
1148	3.66394e+02	1.14800e+03	2.07064	364.0
1149	3.66906e+02	1.14900e+03	2.05299	364.5
1150	3.67389e+02	1.15000e+03	2.03519	365.0
1151	3.67879e+02	1.15100e+03	2.01724	365.5
1152	3.68375e+02	1.15200e+03	1.99854	366.0
1153	3.68875e+02	1.15300e+03	1.97994	366.5
1154	3.69364e+02	1.15400e+03	1.96118	367.0
1155	3.69848e+02	1.15500e+03	1.94229	367.5
1156	3.70323e+02	1.15600e+03	1.92266	368.0
1157	3.70811e+02	1.15700e+03	1.90315	368.5
1158	3.71301e+02	1.15800e+03	1.8835	369.0
1159	3.71818e+02	1.15900e+03	1.86372	369.5
1160	3.72338e+02	1.16000e+03	1.84324	370.0
1161	3.72859e+02	1.16100e+03	1.82284	370.5
1162	3.73372e+02	1.16200e+03	1.80228	371.0
1163	3.73857e+02	1.16300e+03	1.7816	371.5
1164	3.74352e+02	1.16400e+03	1.76022	372.0
1165	3.74856e+02	1.16500e+03	1.73896	372.5
1166	3.75384e+02	1.16600e+03	1.71759	373.0
1167	3.75926e+02	1.16700e+03	1.6961	373.5
1168	3.76416e+02	1.16800e+03	1.67404	374.0
1169	3.76912e+02	1.16900e+03	1.65206	374.5
1170	3.77431e+02	1.17000e+03	1.62998	375.0
1171	3.77981e+02	1.17100e+03	1.6078	375.5
1172	3.78501e+02	1.17200e+03	1.58513	376.0
1173	3.79036e+02	1.17300e+03	1.56255	376.5
1174	3.79559e+02	1.17400e+03	1.53991	377.0
1175	3.80069e+02	1.17500e+03	1.5172	377.5
1176	3.80598e+02	1.17600e+03	1.49412	378.0
1177	3.81086e+02	1.17700e+03	1.47112	378.5
1178	3.81568e+02	1.17800e+03	1.44807	379.0
1179	3.82069e+02	1.17900e+03	1.42497	379.5
1180	3.82508e+02	1.18000e+03	1.40163	380.0
1181	3.83020e+02	1.18100e+03	1.37834	380.5
1182	3.83526e+02	1.18200e+03	1.35504	381.0
1183	3.84104e+02	1.18300e+03	1.3317	381.5
1184	3.84651e+02	1.18400e+03	1.30822	382.0
1185	3.85144e+02	1.18500e+03	1.28479	382.5
1186	3.85680e+02	1.18600e+03	1.26135	383.0
1187	3.86218e+02	1.18700e+03	1.23789	383.5
1188	3.86708e+02	1.18800e+03	1.21438	384.0
1189	3.87235e+02	1.18900e+03	1.19089	384.5
1190	3.87738e+02	1.19000e+03	1.16741	385.0
1191	3.88272e+02	1.19100e+03	1.14394	385.5
1192	3.88773e+02	1.19200e+03	1.1205	386.0
1193	3.89271e+02	1.19300e+03	1.0971	386.5
1194	3.89763e+02	1.19400e+03	1.07375	387.0
1195	3.90270e+02	1.19500e+03	1.05043	387.5
1196	3.90824e+02	1.19600e+03	1.02727	388.0
1197	3.91349e+02	1.19700e+03	1.0041	388.5
1198	3.91843e+02	1.19800e+03	0.980991	389.0
1199	3.92348e+02	1.19900e+03	0.957926	389.5
1200	3.92871e+02	1.20000e+03	0.935103	390.0
1201	3.93363e+02	1.20100e+03	0.912281	390.5
1202	3.93884e+02	1.20200e+03	0.889543	391.0
1203	3.94407e+02	1.20300e+03	0.866872	391.5
1204	3.94904e+02	1.20400e+03	0.844542	392.0
1205	3.95419e+02	1.20500e+03	0.822186	392.5
1206	3.95908e+02	1.20600e+03	0.799935	393.0
1207	3.96403e+02	1.20700e+03	0.777774	393.5
1208	3.96902e+02	1.20800e+03	0.756054	394.0
1209	3.97423e+02	1.20900e+03	0.734318	394.5
1210	3.97927e+02	1.21000e+03	0.712712	395.0
1211	3.98427e+02	1.21100e+03	0.691221	395.5
1212	3.98931e+02	1.21200e+03	0.6703	396.0
1213	3.99443e+02	1.21300e+03	0.649312	396.5
1214	3.99947e+02	1.21400e+03	0.628465	397.0
1215	4.00463e+02	1.21500e+03	0.607756	397.5
1216	4.00975e+02	1.21600e+03	0.587731	398.0
1217	4.01462e+02	1.21700e+03	0.567685	398.5
1218	4.01969e+02	1.21800e+03	0.547858	399.0
1219	4.02488e+02	1.21900e+03	0.528215	399.5
1220	4.03002e+02	1.22000e+03	0.509515	400.0
1221	4.03514e+02	1.22100e+03	0.490753	400.5
1222	4.04036e+02	1.22200e+03	0.47224	401.0
1223	4.04551e+02	1.22300e+03	0.45395	401.5
1224	4.05033e+02	1.22400e+03	0.436818	402.0
1225	4.05516e+02	1.22500e+03	0.419564	402.5
1226	4.06036e+02	1.22600e+03	0.402584	403.0
1227	4.06561e+02	1.22700e+03	0.385853	403.5
1228	4.07076e+02	1.22800e+03	0.370395	404.0
1229	4.07612e+02	1.22900e+03	0.354799	404.5
1230	4.08143e+02	1.23000e+03	0.339488	405.0
1231	4.08707e+02	1.23100e+03	0.324434	405.5
1232	4.09244e+02	1.23200e+03	0.310726	406.0
1233	4.09770e+02	1.23300e+03	0.296841	406.5
1234	4.10323e+02	1.23400e+03	0.283237	407.0
1235	4.10800e+02	1.23500e+03	0.269891	407.5
1236	4.11323e+02	1.23600e+03	0.257877	408.0
1237	4.11923e+02	1.23700e+03	0.245668	408.5
1238	4.12458e+02	1.23800e+03	0.233714	409.0
1239	4.13007e+02	1.23900e+03	0.221997	409.5
1240	4.13412e+02	1.24000e+03	0.211514	410.0
1241	4.13972e+02	1.24100e+03	0.200829	410.5
1242	4.14437e+02	1.24200e+03	0.190374	411.0
1243	4.14934e+02	1.24300e+03	0.180136	411.5
1244	4.15363e+02	1.24400e+03	0.171004	412.0
1245	4.15830e+02	1.24500e+03	0.16171	412.5
1246	4.16244e+02	1.24600e+03	0.152628	413.0
1247	4.16714e+02	1.24700e+03	0.143746	413.5
1248	4.17202e+02	1.24800e+03	0.135898	414.0
1249	4.17669e+02	1.24900e+03	0.127892	414.5
1250	4.18146e+02	1.25000e+03	0.120086	415.0
1251	4.18630e+02	1.25100e+03	0.11247	415.5
1252	4.19108e+02	1.25200e+03	0.105817	416.0
1253	4.19592e+02	1.25300e+03	0.0990244	416.5
1254	4.20088e+02	1.25400e+03	0.0924207	417.0
1255	4.20590e+02	1.25500e+03	0.0859916	417.5
1256	4.21067e+02	1.25600e+03	0.0804617	418.0
1257	4.21574e+02	1.25700e+03	0.0747815	418.5
1258	4.22046e+02	1.25800e+03	0.0692636	419.0
1259	4.22525e+02	1.25900e+03	0.0639009	419.5
1260	4.23037e+02	1.26000e+03	0.0593354	420.0
1261	4.23532e+02	1.26100e+03	0.0546442	420.5
1262	4.24016e+02	1.26200e+03	0.0501017	421.0
1263	4.24511e+02	1.26300e+03	0.0457007	421.5
1264	4.25025e+02	1.26400e+03	0.0420206	422.0
1265	4.25509e+02	1.26500e+03	0.0382197	422.5
1266	4.26036e+02	1.26600e+03	0.0345445	423.0
1267	4.26572e+02	1.26700e+03	0.0309908	423.5
1268	4.27101e+02	1.26800e+03	0.0280628	424.0
1269	4.27687e+02	1.26900e+03	0.0250192	424.5
1270	4.28144e+02	1.27000e+03	0.0220751	425.0
1271	4.28662e+02	1.27100e+03	0.0192295	425.5
1272	4.29175e+02	1.27200e+03	0.0168956	426.0
1273	4.29725e+02	1.27300e+03	0.0144671	426.5
1274	4.30230e+02	1.27400e+03	0.0121203	427.0
1275	4.30727e+02	1.27500e+03	0.00985499	427.5
1276	4.31222e+02	1.27600e+03	0.00801307	428.0
1277	4.31681e+02	1.27700e+03	0.00609878	428.5
1278	4.32191e+02	1.27800e+03	0.00425595	429.0
1279	4.32690e+02	1.27900e+03	0.0024812	429.5
1280	4.33218e+02	1.28000e+03	0.00105868	430.0
1281	4.33710e+02	1.28100e+03	-0.000433282	430.5
1282	4.34232e+02	1.28200e+03	-0.0018736	431.0
1283	4.34803e+02	1.28300e+03	-0.00326144	431.5
1284	4.35313e+02	1.28400e+03	-0.00437254	432.0
1285	4.35810e+02	1.28500e+03	-0.00553375	432.5
1286	4.36266e+02	1.28600e+03	-0.00665053	433.0
1287	4.36736e+02	1.28700e+03	-0.00772383	433.5
1288	4.37223e+02	1.28800e+03	-0.00857377	434.0
1289	4.37710e+02	1.28900e+03	-0.00946707	434.5
1290	4.38209e+02	1.29000e+03	-0.0103285	435.0
1291	4.38707e+02	1.29100e+03	-0.0111582	435.5
1292	4.39187e+02	1.29200e+03	-0.0118177	436.0
1293	4.39696e+02	1.29300e+03	-0.012512	436.5
1294	4.40201e+02	1.29400e+03	-0.0131791	437.0
1295	4.40685e+02	1.29500e+03	-0.013819	437.5
1296	4.41171e+02	1.29600e+03	-0.0143287	438.0
1297	4.41673e+02	1.29700e+03	-0.0148615	438.5
1298	4.42174e+02	1.29800e+03	-0.0153744	439.0
1299	4.42674e+02	1.29900e+03	-0.0158678	439.5
1300	4.43174e+02	1.30000e+03	-0.0162575	440.0
1301	4.43684e+02	1.30100e+03	-0.0166719	440.5
1302	4.44164e+02	1.30200e+03	-0.0170729	441.0
1303	4.44650e+02	1.30300e+03	-0.0174597	441.5
1304	4.45133e+02	1.30400e+03	-0.0177763	442.0
1305	4.45657e+02	1.30500e+03	-0.018106	442.5
1306	4.46143e+02	1.30600e+03	-0.0184241	443.0
1307	4.46636e+02	1.30700e+03	-0.0187296	443.5
1308	4.47144e+02	1.30800e+03	-0.0189705	444.0
1309	4.47649e+02	1.30900e+03	-0.0192196	444.5
1310	4.48156e+02	1.31000e+03	-0.0194547	445.0
1311	4.48673e+02	1.31100e+03	-0.0196771	445.5
1312	4.49170e+02	1.31200e+03	-0.0198386	446.0
1313	4.49665e+02	1.31300e+03	-0.020015	446.5
1314	4.50160e+02	1.31400e+03	-0.020187	447.0
1315	4.50643e+02	1.31500e+03	-0.0203541	447.5
1316	4.51137e+02	1.31600e+03	-0.0204918	448.0
1317	4.51616e+02	1.31700e+03	-0.0206457	448.5
1318	4.52097e+02	1.31800e+03	-0.0208023	449.0
1319	4.52575e+02	1.31900e+03	-0.0209587	449.5
1320	4.53069e+02	1.32000e+03	-0.0211107	450.0
1321	4.53560e+02	1.32100e+03	-0.0212523	450.5
1322	4.54060e+02	1.32200e+03	-0.0213822	451.0
1323	4.54551e+02	1.32300e+03	-0.0215037	451.5
1324	4.55028e+02	1.32400e+03	-0.0215939	452.0
1325	4.55511e+02	1.32500e+03	-0.021691	452.5
1326	4.56007e+02	1.32600e+03	-0.0217847	453.0
1327	4.56495e+02	1.32700e+03	-0.0218739	453.5
1328	4.57008e+02	1.32800e+03	-0.0219351	454.0
1329	4.57490e+02	1.32900e+03	-0.0220031	454.5
1330	4.57967e+02	1.33000e+03	-0.0220649	455.0
1331	4.58408e+02	1.33100e+03	-0.0221205	455.5
1332	4.58887e+02	1.33200e+03	-0.0221516	456.0
1333	4.59368e+02	1.33300e+03	-0.0221797	456.5
1334	4.59842e+02	1.33400e+03	-0.0221988	457.0
1335	4.60323e+02	1.33500e+03	-0.0222115	457.5
1336	4.60817e+02	1.33600e+03	-0.0221901	458.0
1337	4.61290e+02	1.33700e+03	-0.0221837	458.5
1338	4.61762e+02	1.33800e+03	-0.0221831	459.0
1339	4.62239e+02	1.33900e+03	-0.0221861	459.5
1340	4.62708e+02	1.34000e+03	-0.0221996	460.0
1341	4.63178e+02	1.34100e+03	-0.0222246	460.5
1342	4.63667e+02	1.34200e+03	-0.0222589	461.0
1343	4.64163e+02	1.34300e+03	-0.0222981	461.5
1344	4.64665e+02	1.34400e+03	-0.0223667	462.0
1345	4.65166e+02	1.34500e+03	-0.0224159	462.5
1346	4.65645e+02	1.34600e+03	-0.022459	463.0
1347	4.66133e+02	1.34700e+03	-0.0224995	463.5
1348	4.66603e+02	1.34800e+03	-0.0225249	464.0
1349	4.67054e+02	1.34900e+03	-0.0225503	464.5
1350	4.67522e+02	1.35000e+03	-0.0225739	465.0
1351	4.68011e+02	1.35100e+03	-0.0225965	465.5
1352	4.68504e+02	1.35200e+03	-0.0226111	466.0
1353	4.69006e+02	1.35300e+03	-0.0226373	466.5
1354	4.69512e+02	1.35400e+03	-0.0226695	467.0
1355	4.70011e+02	1.35500e+03	-0.0227047	467.5
1356	4.70488e+02	1.35600e+03	-0.0227602	468.0
1357	4.70984e+02	1.35700e+03	-0.0228107	468.5
1358	4.71479e+02	1.35800e+03	-0.0228602	469.0
1359	4.71939e+02	1.35900e+03	-0.0229087	469.5
1360	4.72403e+02	1.36000e+03	-0.0229542	470.0
1361	4.72878e+02	1.36100e+03	-0.0229879	470.5
1362	4.73352e+02	1.36200e+03	-0.0230115	471.0
1363	4.73845e+02	1.36300e+03	-0.023029	471.5
1364	4.74307e+02	1.36400e+03	-0.0230106	472.0
1365	4.74787e+02	1.36500e+03	-0.0230018	472.5
1366	4.75249e+02	1.36600e+03	-0.0229922	473.0
1367	4.75733e+02	1.36700e+03	-0.0229803	473.5
1368	4.76226e+02	1.36800e+03	-0.0229529	474.0
1369	4.76701e+02	1.36900e+03	-0.0229363	474.5
1370	4.77197e+02	1.37000e+03	-0.0229236	475.0
1371	4.77678e+02	1.37100e+03	-0.022913	475.5
1372	4.78175e+02	1.37200e+03	-0.0229142	476.0
1373	4.78670e+02	1.37300e+03	-0.0229146	476.5
1374	4.79153e+02	1.37400e+03	-0.0229168	477.0
1375	4.79622e+02	1.37500e+03	-0.0229204	477.5
1376	4.80110e+02	1.37600e+03	-0.0229327	478.0
1377	4.80593e+02	1.37700e+03	-0.0229371	478.5
1378	4.81081e+02	1.37800e+03	-0.0229367	479.0
1379	4.81566e+02	1.37900e+03	-0.0229341	479.5
1380	4.82081e+02	1.38000e+03	-0.0229242	480.0
1381	4.82577e+02	1.38100e+03	-0.0229168	480.5
1382	4.83056e+02	1.38200e+03	-0.0229102	481.0
1383	4.83525e+02	1.38300e+03	-0.0229045	481.5
1384	4.83986e+02	1.38400e+03	-0.0229023	482.0
1385	4.84441e+02	1.38500e+03	-0.0229066	482.5
1386	4.84922e+02	1.38600e+03	-0.0229154	483.0
1387	4.85415e+02	1.38700e+03	-0.0229269	483.5
1388	4.85909e+02	1.38800e+03	-0.0229585	484.0
1389	4.86397e+02	1.38900e+03	-0.0229855	484.5
1390	4.86875e+02	1.39000e+03	-0.0230153	485.0
1391	4.87373e+02	1.39100e+03	-0.0230477	485.5
1392	4.87859e+02	1.39200e+03	-0.0230935	486.0
1393	4.88341e+02	1.39300e+03	-0.0231366	486.5
1394	4.88829e+02	1.39400e+03	-0.0231815	487.0
1395	4.89336e+02	1.39500e+03	-0.0232278	487.5
1396	4.89830e+02	1.39600e+03	-0.0232795	488.0
1397	4.90326e+02	1.39700e+03	-0.0233266	488.5
1398	4.90830e+02	1.39800e+03	-0.0233725	489.0
1399	4.91330e+02	1.39900e+03	-0.0234178	489.5
1400	4.91827e+02	1.40000e+03	-0.0234558	490.0
1401	4.92322e+02	1.40100e+03	-0.0234912	490.5
1402	4.92821e+02	1.40200e+03	-0.023522	491.0
1403	4.93328e+02	1.40300e+03	-0.0235496	491.5
1404	4.93826e+02	1.40400e+03	-0.0235604	492.0
1405	4.94324e+02	1.40500e+03	-0.0235717	492.5
1406	4.94808e+02	1.40600e+03	-0.02358	493.0
1407	4.95279e+02	1.40700e+03	-0.0235863	493.5
1408	4.95758e+02	1.40800e+03	-0.0235782	494.0
1409	4.96241e+02	1.40900e+03	-0.0235761	494.5
1410	4.96725e+02	1.41000e+03	-0.0235733	495.0
1411	4.97209e+02	1.41100e+03	-0.023569	495.5
1412	4.97705e+02	1.41200e+03	-0.0235596	496.0
1413	4.98198e+02	1.41300e+03	-0.0235499	496.5
1414	4.98692e+02	1.41400e+03	-0.0235385	497.0
1415	4.99192e+02	1.41500e+03	-0.023526	497.5
1416	4.99691e+02	1.41600e+03	-0.0235076	498.0
1417	5.00201e+02	1.41700e+03	-0.0234929	498.5
1418	5.00723e+02	1.41800e+03	-0.0234796	499.0
1419	5.01228e+02	1.41900e+03	-0.0234668	499.5
1420	5.01739e+02	1.42000e+03	-0.0234581	500.0
1421	5.02226e+02	1.42100e+03	-0.0234512	500.5
1422	5.02718e+02	1.42200e+03	-0.0234472	501.0
1423	5.03201e+02	1.42300e+03	-0.0234453	501.5
1424	5.03678e+02	1.42400e+03	-0.0234525	502.0
1425	5.04169e+02	1.42500e+03	-0.0234579	502.5
1426	5.04679e+02	1.42600e+03	-0.0234655	503.0
1427	5.05174e+02	1.42700e+03	-0.0234749	503.5
1428	5.05664e+02	1.42800e+03	-0.023492	504.0
1429	5.06189e+02	1.42900e+03	-0.0235076	504.5
1430	5.06667e+02	1.43000e+03	-0.0235252	505.0
1431	5.07122e+02	1.43100e+03	-0.023545	505.5
1432	5.07602e+02	1.43200e+03	-0.0235709	506.0
1433	5.08091e+02	1.43300e+03	-0.0235942	506.5
1434	5.08504e+02	1.43400e+03	-0.0236175	507.0
1435	5.08981e+02	1.43500e+03	-0.0236412	507.5
1436	5.09641e+02	1.43600e+03	-0.0236645	508.0
1437	5.10151e+02	1.43700e+03	-0.0236814	508.5
1438	5.10593e+02	1.43800e+03	-0.0236921	509.0
1439	5.11050e+02	1.43900e+03	-0.0236991	509.5
1440	5.11495e+02	1.44000e+03	-0.0236899	510.0
1441	5.11983e+02	1.44100e+03	-0.0236839	510.5
1442	5.12478e+02	1.44200e+03	-0.0236778	511.0
1443	5.12975e+02	1.44300e+03	-0.0236712	511.5
1444	5.13480e+02	1.44400e+03	-0.0236574	512.0
1445	5.13978e+02	1.44500e+03	-0.0236521	512.5
1446	5.14469e+02	1.44600e+03	-0.0236508	513.0
1447	5.14951e+02	1.44700e+03	-0.0236515	513.5
1448	5.15448e+02	1.44800e+03	-0.0236641	514.0
1449	5.15948e+02	1.44900e+03	-0.0236726	514.5
1450	5.16454e+02	1.45000e+03	-0.023682	515.0
1451	5.16953e+02	1.45100e+03	-0.0236928	515.5
1452	5.17440e+02	1.45200e+03	-0.023707	516.0
1453	5.17943e+02	1.45300e+03	-0.0237183	516.5
1454	5.18426e+02	1.45400e+03	-0.0237293	517.0
1455	5.18913e+02	1.45500e+03	-0.0237407	517.5
1456	5.19398e+02	1.45600e+03	-0.0237485	518.0
1457	5.19886e+02	1.45700e+03	-0.023755	518.5
1458	5.20378e+02	1.45800e+03	-0.0237589	519.0
1459	5.20865e+02	1.45900e+03	-0.0237611	519.5
1460	5.21351e+02	1.46000e+03	-0.0237572	520.0
1461	5.21846e+02	1.46100e+03	-0.0237528	520.5
1462	5.22327e+02	1.46200e+03	-0.023745	521.0
1463	5.22817e+02	1.46300e+03	-0.0237349	521.5
1464	5.23303e+02	1.46400e+03	-0.0237165	522.0
1465	5.23791e+02	1.46500e+03	-0.0236995	522.5
1466	5.24280e+02	1.46600e+03	-0.0236809	523.0
1467	5.24771e+02	1.46700e+03	-0.0236608	523.5
1468	5.25264e+02	1.46800e+03	-0.0236359	524.0
1469	5.25753e+02	1.46900e+03	-0.0236156	524.5
1470	5.26247e+02	1.47000e+03	-0.0235973	525.0
1471	5.26734e+02	1.47100e+03	-0.0235795	525.5
1472	5.27201e+02	1.47200e+03	-0.0235677	526.0
1473	5.27695e+02	1.47300e+03	-0.0235577	526.5
1474	5.28172e+02	1.47400e+03	-0.0235512	527.0
1475	5.28656e+02	1.47500e+03	-0.0235472	527.5
1476	5.29133e+02	1.47600e+03	-0.0235555	528.0
1477	5.29620e+02	1.47700e+03	-0.0235621	528.5
1478	5.30110e+02	1.47800e+03	-0.0235713	529.0
1479	5.30595e+02	1.47900e+03	-0.0235829	529.5
1480	5.31067e+02	1.48000e+03	-0.0236039	530.0
1481	5.31557e+02	1.48100e+03	-0.0236208	530.5
1482	5.32046e+02	1.48200e+03	-0.023639	531.0
1483	5.32523e+02	1.48300e+03	-0.0236587	531.5
1484	5.33015e+02	1.48400e+03	-0.0236819	532.0
1485	5.33515e+02	1.48500e+03	-0.0237042	532.5
1486	5.33998e+02	1.48600e+03	-0.0237271	533.0
1487	5.34495e+02	1.48700e+03	-0.0237507	533.5
1488	5.34989e+02	1.48800e+03	-0.0237749	534.0
1489	5.35498e+02	1.48900e+03	-0.023796	534.5
1490	5.36005e+02	1.49000e+03	-0.0238153	535.0
1491	5.36511e+02	1.49100e+03	-0.0238335	535.5
1492	5.37018e+02	1.49200e+03	-0.0238465	536.0
1493	5.37533e+02	1.49300e+03	-0.0238599	536.5
1494	5.38025e+02	1.49400e+03	-0.0238704	537.0
1495	5.38521e+02	1.49500e+03	-0.0238785	537.5
1496	5.39014e+02	1.49600e+03	-0.0238759	538.0
1497	5.39528e+02	1.49700e+03	-0.0238721	538.5
1498	5.40032e+02	1.49800e+03	-0.0238654	539.0
1499	5.40543e+02	1.49900e+03	-0.0238568	539.5
1500	5.41032e+02	1.50000e+03	-0.0238388	540.0
1501	5.41534e+02	1.50100e+03	-0.0238299	540.5
1502	5.42040e+02	1.50200e+03	-0.0238239	541.0
1503	5.42530e+02	1.50300e+03	-0.0238189	541.5
1504	5.43029e+02	1.50400e+03	-0.0238204	542.0
1505	5.43514e+02	1.50500e+03	-0.0238196	542.5
1506	5.43982e+02	1.50600e+03	-0.02382	543.0
1507	5.44471e+02	1.50700e+03	-0.0238217	543.5
1508	5.44963e+02	1.50800e+03	-0.0238276	544.0
1509	5.45441e+02	1.50900e+03	-0.0238332	544.5
1510	5.45915e+02	1.51000e+03	-0.0238405	545.0
1511	5.46391e+02	1.51100e+03	-0.0238494	545.5
1512	5.46873e+02	1.51200e+03	-0.0238618	546.0
1513	5.47367e+02	1.51300e+03	-0.0238703	546.5
1514	5.47852e+02	1.51400e+03	-0.0238772	547.0
1515	5.48324e+02	1.51500e+03	-0.0238839	547.5
1516	5.48816e+02	1.51600e+03	-0.0238902	548.0
1517	5.49304e+02	1.51700e+03	-0.0238983	548.5
1518	5.49777e+02	1.51800e+03	-0.0239076	549.0
1519	5.50269e+02	1.51900e+03	-0.0239175	549.5
1520	5.50761e+02	1.52000e+03	-0.0239314	550.0
1521	5.51248e+02	1.52100e+03	-0.0239445	550.5
1522	5.51747e+02	1.52200e+03	-0.0239566	551.0
1523	5.52241e+02	1.52300e+03	-0.0239679	551.5
1524	5.52740e+02	1.52400e+03	-0.0239814	552.0
1525	5.53223e+02	1.52500e+03	-0.0239937	552.5
1526	5.53726e+02	1.52600e+03	-0.0240052	553.0
1527	5.54228e+02	1.52700e+03	-0.024016	553.5
1528	5.54717e+02	1.52800e+03	-0.0240232	554.0
1529	5.55203e+02	1.52900e+03	-0.024032	554.5
1530	5.55690e+02	1.53000e+03	-0.0240416	555.0
1531	5.56191e+02	1.53100e+03	-0.0240512	555.5
1532	5.56675e+02	1.53200e+03	-0.0240602	556.0
1533	5.57158e+02	1.53300e+03	-0.0240715	556.5
1534	5.57655e+02	1.53400e+03	-0.0240848	557.0
1535	5.58142e+02	1.53500e+03	-0.0240994	557.5
1536	5.58628e+02	1.53600e+03	-0.0241152	558.0
1537	5.59123e+02	1.53700e+03	-0.0241282	558.5
1538	5.59613e+02	1.53800e+03	-0.0241401	559.0
1539	5.60102e+02	1.53900e+03	-0.0241515	559.5
1540	5.60584e+02	1.54000e+03	-0.0241588	560.0
1541	5.61072e+02	1.54100e+03	-0.0241665	560.5
1542	5.61556e+02	1.54200e+03	-0.0241736	561.0
1543	5.62033e+02	1.54300e+03	-0.0241804	561.5
1544	5.62518e+02	1.54400e+03	-0.0241882	562.0
1545	5.63001e+02	1.54500e+03	-0.0241982	562.5
1546	5.63498e+02	1.54600e+03	-0.0242065	563.0
1547	5.63997e+02	1.54700e+03	-0.024213	563.5
1548	5.64497e+02	1.54800e+03	-0.0242187	564.0
1549	5.64985e+02	1.54900e+03	-0.0242212	564.5
1550	5.65455e+02	1.55000e+03	-0.0242229	565.0
1551	5.65934e+02	1.55100e+03	-0.024224	565.5
1552	5.66395e+02	1.55200e+03	-0.0242139	566.0
1553	5.66867e+02	1.55300e+03	-0.0242083	566.5
1554	5.67340e+02	1.55400e+03	-0.024204	567.0
1555	5.67819e+02	1.55500e+03	-0.0242002	567.5
1556	5.68312e+02	1.55600e+03	-0.0241958	568.0
1557	5.68810e+02	1.55700e+03	-0.0241902	568.5
1558	5.69299e+02	1.55800e+03	-0.0241831	569.0
1559	5.69792e+02	1.55900e+03	-0.0241758	569.5
1560	5.70272e+02	1.56000e+03	-0.0241704	570.0
1561	5.70769e+02	1.56100e+03	-0.0241652	570.5
1562	5.71251e+02	1.56200e+03	-0.0241595	571.0
1563	5.71728e+02	1.56300e+03	-0.0241533	571.5
1564	5.72216e+02	1.56400e+03	-0.0241479	572.0
1565	5.72681e+02	1.56500e+03	-0.0241432	572.5
1566	5.73166e+02	1.56600e+03	-0.0241404	573.0
1567	5.73651e+02	1.56700e+03	-0.0241386	573.5
1568	5.74135e+02	1.56800e+03	-0.024139	574.0
1569	5.74619e+02	1.56900e+03	-0.0241412	574.5
1570	5.75120e+02	1.57000e+03	-0.0241457	575.0
1571	5.75604e+02	1.57100e+03	-0.0241518	575.5
1572	5.76092e+02	1.57200e+03	-0.0241637	576.0
1573	5.76603e+02	1.57300e+03	-0.0241719	576.5
1574	5.77106e+02	1.57400e+03	-0.0241796	577.0
1575	5.77614e+02	1.57500e+03	-0.0241878	577.5
1576	5.78118e+02	1.57600e+03	-0.0241969	578.0
1577	5.78633e+02	1.57700e+03	-0.0242042	578.5
1578	5.79100e+02	1.57800e+03	-0.024209	579.0
1579	5.79605e+02	1.57900e+03	-0.0242122	579.5
1580	5.80132e+02	1.58000e+03	-0.0242083	580.0
1581	5.80662e+02	1.58100e+03	-0.0242018	580.5
1582	5.81160e+02	1.58200e+03	-0.0241912	581.0
1583	5.81613e+02	1.58300e+03	-0.0241778	581.5
1584	5.82108e+02	1.58400e+03	-0.0241514	582.0
1585	5.82607e+02	1.58500e+03	-0.0241323	582.5
1586	5.83124e+02	1.58600e+03	-0.0241158	583.0
1587	5.83610e+02	1.58700e+03	-0.0241003	583.5
1588	5.84050e+02	1.58800e+03	-0.024091	584.0
1589	5.84507e+02	1.58900e+03	-0.0240862	584.5
1590	5.84969e+02	1.59000e+03	-0.0240861	585.0
1591	5.85446e+02	1.59100e+03	-0.0240889	585.5
1592	5.85933e+02	1.59200e+03	-0.0241092	586.0
1593	5.86408e+02	1.59300e+03	-0.0241249	586.5
1594	5.86893e+02	1.59400e+03	-0.0241406	587.0
1595	5.87388e+02	1.59500e+03	-0.0241561	587.5
1596	5.87883e+02	1.59600e+03	-0.0241732	588.0
1597	5.88383e+02	1.59700e+03	-0.0241854	588.5
1598	5.88868e+02	1.59800e+03	-0.0241961	589.0
1599	5.89360e+02	1.59900e+03	-0.0242059	589.5
1600	5.89854e+02	1.60000e+03	-0.0242083	590.0
1601	5.90347e+02	1.60100e+03	-0.0242155	590.5
1602	5.90834e+02	1.60200e+03	-0.0242236	591.0
1603	5.91331e+02	1.60300e+03	-0.0242311	591.5
1604	5.91837e+02	1.60400e+03	-0.0242386	592.0
1605	5.92317e+02	1.60500e+03	-0.0242445	592.5
1606	5.92811e+02	1.60600e+03	-0.0242494	593.0
1607	5.93309e+02	1.60700e+03	-0.0242538	593.5
1608	5.93803e+02	1.60800e+03	-0.02425	594.0
1609	5.94286e+02	1.60900e+03	-0.0242462	594.5
1610	5.94767e+02	1.61000e+03	-0.024242	595.0
1611	5.95256e+02	1.61100e+03	-0.0242374	595.5
1612	5.95761e+02	1.61200e+03	-0.0242269	596.0
1613	5.96255e+02	1.61300e+03	-0.02422	596.5
1614	5.96733e+02	1.61400e+03	-0.0242142	597.0
1615	5.97214e+02	1.61500e+03	-0.0242091	597.5
1616	5.97717e+02	1.61600e+03	-0.024207	598.0
1617	5.98199e+02	1.61700e+03	-0.0242045	598.5
1618	5.98685e+02	1.61800e+03	-0.0242038	599.0
1619	5.99185e+02	1.61900e+03	-0.0242052	599.5
1620	5.99674e+02	1.62000e+03	-0.024214	600.0
1621	6.00177e+02	1.62100e+03	-0.0242225	600.5
1622	6.00657e+02	1.62200e+03	-0.024231	601.0
1623	6.01138e+02	1.62300e+03	-0.0242393	601.5
1624	6.01630e+02	1.62400e+03	-0.0242502	602.0
1625	6.02125e+02	1.62500e+03	-0.0242551	602.5
1626	6.02629e+02	1.62600e+03	-0.0242563	603.0
1627	6.03118e+02	1.62700e+03	-0.0242556	603.5
1628	6.03600e+02	1.62800e+03	-0.0242455	604.0
1629	6.04106e+02	1.62900e+03	-0.0242405	604.5
1630	6.04592e+02	1.63000e+03	-0.0242366	605.0
1631	6.05074e+02	1.63100e+03	-0.024233	605.5
1632	6.05568e+02	1.63200e+03	-0.0242306	606.0
1633	6.06051e+02	1.63300e+03	-0.0242293	606.5
1634	6.06552e+02	1.63400e+03	-0.0242288	607.0
1635	6.07043e+02	1.63500e+03	-0.0242285	607.5
1636	6.07528e+02	1.63600e+03	-0.0242302	608.0
1637	6.08028e+02	1.63700e+03	-0.0242286	608.5
1638	6.08516e+02	1.63800e+03	-0.0242245	609.0
1639	6.09006e+02	1.63900e+03	-0.0242187	609.5
1640	6.09491e+02	1.64000e+03	-0.024207	610.0
1641	6.09990e+02	1.64100e+03	-0.0241985	610.5
1642	6.10482e+02	1.64200e+03	-0.0241932	611.0
1643	6.10975e+02	1.64300e+03	-0.02419	611.5
1644	6.11473e+02	1.64400e+03	-0.0241909	612.0
1645	6.11967e+02	1.64500e+03	-0.0241965	612.5
1646	6.12470e+02	1.64600e+03	-0.0242066	613.0
1647	6.12978e+02	1.64700e+03	-0.0242195	613.5
1648	6.13460e+02	1.64800e+03	-0.0242482	614.0
1649	6.13951e+02	1.64900e+03	-0.0242697	614.5
1650	6.14446e+02	1.65000e+03	-0.0242897	615.0
1651	6.14943e+02	1.65100e+03	-0.0243099	615.5
1652	6.15453e+02	1.65200e+03	-0.0243308	616.0
1653	6.15945e+02	1.65300e+03	-0.0243477	616.5
1654	6.16446e+02	1.65400e+03	-0.0243617	617.0
1655	6.16942e+02	1.65500e+03	-0.024374	617.5
1656	6.17441e+02	1.65600e+03	-0.0243764	618.0
1657	6.17942e+02	1.65700e+03	-0.0243785	618.5
1658	6.18447e+02	1.65800e+03	-0.0243764	619.0
1659	6.18947e+02	1.65900e+03	-0.0243712	619.5
1660	6.19450e+02	1.66000e+03	-0.0243516	620.0
1661	6.19958e+02	1.66100e+03	-0.0243337	620.5
1662	6.20459e+02	1.66200e+03	-0.0243135	621.0
1663	6.20953e+02	1.66300e+03	-0.0242916	621.5
1664	6.21447e+02	1.66400e+03	-0.0242617	622.0
1665	6.21947e+02	1.66500e+03	-0.0242398	622.5
1666	6.22452e+02	1.66600e+03	-0.0242226	623.0
1667	6.22955e+02	1.66700e+03	-0.0242081	623.5
1668	6.23438e+02	1.66800e+03	-0.0242061	624.0
1669	6.23940e+02	1.66900e+03	-0.0242045	624.5
1670	6.24441e+02	1.67000e+03	-0.0242059	625.0
1671	6.24939e+02	1.67100e+03	-0.024209	625.5
1672	6.25438e+02	1.67200e+03	-0.0242227	626.0
1673	6.25932e+02	1.67300e+03	-0.0242282	626.5
1674	6.26426e+02	1.67400e+03	-0.0242305	627.0
1675	6.26948e+02	1.67500e+03	-0.0242315	627.5
1676	6.27450e+02	1.67600e+03	-0.0242218	628.0
1677	6.27946e+02	1.67700e+03	-0.0242115	628.5
1678	6.28442e+02	1.67800e+03	-0.0241994	629.0
1679	6.28940e+02	1.67900e+03	-0.0241864	629.5
1680	6.29438e+02	1.68000e+03	-0.024165	630.0
1681	6.29928e+02	1.68100e+03	-0.0241497	630.5
1682	6.30427e+02	1.68200e+03	-0.0241365	631.0
1683	6.30923e+02	1.68300e+03	-0.0241248	631.5
1684	6.31422e+02	1.68400e+03	-0.0241217	632.0
1685	6.31910e+02	1.68500e+03	-0.0241174	632.5
1686	6.32401e+02	1.68600e+03	-0.0241114	633.0
1687	6.32898e+02	1.68700e+03	-0.024104	633.5
1688	6.33388e+02	1.68800e+03	-0.0240961	634.0
1689	6.33876e+02	1.68900e+03	-0.0240827	634.5
1690	6.34362e+02	1.69000e+03	-0.0240677	635.0
1691	6.34860e+02	1.69100e+03	-0.0240528	635.5
1692	6.35352e+02	1.69200e+03	-0.0240344	636.0
1693	6.35850e+02	1.69300e+03	-0.0240281	636.5
1694	6.36343e+02	1.69400e+03	-0.0240311	637.0
1695	6.36855e+02	1.69500e+03	-0.0240401	637.5
1696	6.37357e+02	1.69600e+03	-0.0240694	638.0
1697	6.37854e+02	1.69700e+03	-0.0240895	638.5
1698	6.38355e+02	1.69800e+03	-0.0241084	639.0
1699	6.38858e+02	1.69900e+03	-0.0241268	639.5
1700	6.39361e+02	1.70000e+03	-0.0241463	640.0
1701	6.39862e+02	1.70100e+03	-0.0241609	640.5
1702	6.40361e+02	1.70200e+03	-0.0241748	641.0
1703	6.40856e+02	1.70300e+03	-0.024189	641.5
1704	6.41352e+02	1.70400e+03	-0.0241969	642.0
1705	6.41846e+02	1.70500e+03	-0.0242094	642.5
1706	6.42347e+02	1.70600e+03	-0.0242232	643.0
1707	6.42837e+02	1.70700e+03	-0.0242378	643.5
1708	6.43331e+02	1.70800e+03	-0.0242565	644.0
1709	6.43836e+02	1.70900e+03	-0.0242723	644.5
1710	6.44334e+02	1.71000e+03	-0.0242873	645.0
1711	6.44833e+02	1.71100e+03	-0.0243025	645.5
1712	6.45331e+02	1.71200e+03	-0.0243191	646.0
1713	6.45846e+02	1.71300e+03	-0.0243359	646.5
1714	6.46351e+02	1.71400e+03	-0.0243517	647.0
1715	6.46845e+02	1.71500e+03	-0.0243663	647.5
1716	6.47345e+02	1.71600e+03	-0.0243767	648.0
1717	6.47857e+02	1.71700e+03	-0.0243823	648.5
1718	6.48370e+02	1.71800e+03	-0.0243827	649.0
1719	6.48880e+02	1.71900e+03	-0.0243799	649.5
1720	6.49390e+02	1.72000e+03	-0.0243624	650.0
1721	6.49889e+02	1.72100e+03	-0.0243507	650.5
1722	6.50404e+02	1.72200e+03	-0.0243387	651.0
1723	6.50907e+02	1.72300e+03	-0.0243263	651.5
1724	6.51416e+02	1.72400e+03	-0.0243141	652.0
1725	6.51919e+02	1.72500e+03	-0.0243063	652.5
1726	6.52430e+02	1.72600e+03	-0.0243014	653.0
1727	6.52946e+02	1.72700e+03	-0.024298	653.5
1728	6.53442e+02	1.72800e+03	-0.024306	654.0
1729	6.53930e+02	1.72900e+03	-0.0243112	654.5
1730	6.54427e+02	1.73000e+03	-0.024316	655.0
1731	6.54924e+02	1.73100e+03	-0.0243208	655.5
1732	6.55426e+02	1.73200e+03	-0.0243307	656.0
1733	6.55940e+02	1.73300e+03	-0.0243396	656.5
1734	6.56440e+02	1.73400e+03	-0.0243497	657.0
1735	6.56919e+02	1.73500e+03	-0.0243605	657.5
1736	6.57422e+02	1.73600e+03	-0.0243697	658.0
1737	6.57923e+02	1.73700e+03	-0.0243768	658.5
1738	6.58434e+02	1.73800e+03	-0.0243811	659.0
1739	6.58934e+02	1.73900e+03	-0.0243838	659.5
1740	6.59434e+02	1.74000e+03	-0.024382	660.0
1741	6.59912e+02	1.74100e+03	-0.0243818	660.5
1742	6.60402e+02	1.74200e+03	-0.0243819	661.0
1743	6.60910e+02	1.74300e+03	-0.0243822	661.5
1744	6.61400e+02	1.74400e+03	-0.0243845	662.0
1745	6.61896e+02	1.74500e+03	-0.0243897	662.5
1746	6.62377e+02	1.74600e+03	-0.0243962	663.0
1747	6.62862e+02	1.74700e+03	-0.024403	663.5
1748	6.63357e+02	1.74800e+03	-0.0244152	664.0
1749	6.63855e+02	1.74900e+03	-0.0244231	664.5
1750	6.64368e+02	1.75000e+03	-0.0244296	665.0
1751	6.64861e+02	1.75100e+03	-0.0244352	665.5
1752	6.65359e+02	1.75200e+03	-0.0244338	666.0
1753	6.65858e+02	1.75300e+03	-0.0244334	666.5
1754	6.66355e+02	1.75400e+03	-0.0244319	667.0
1755	6.66853e+02	1.75500e+03	-0.024429	667.5
1756	6.67331e+02	1.75600e+03	-0.0244213	668.0
1757	6.67825e+02	1.75700e+03	-0.0244167	668.5
1758	6.68322e+02	1.75800e+03	-0.0244127	669.0
1759	6.68815e+02	1.75900e+03	-0.0244092	669.5
1760	6.69323e+02	1.76000e+03	-0.0244109	670.0
1761	6.69824e+02	1.76100e+03	-0.0244137	670.5
1762	6.70325e+02	1.76200e+03	-0.0244169	671.0
1763	6.70819e+02	1.76300e+03	-0.0244205	671.5
1764	6.71321e+02	1.76400e+03	-0.0244281	672.0
1765	6.71819e+02	1.76500e+03	-0.02443	672.5
1766	6.72320e+02	1.76600e+03	-0.0244279	673.0
1767	6.72815e+02	1.76700e+03	-0.0244235	673.5
1768	6.73306e+02	1.76800e+03	-0.0244074	674.0
1769	6.73802e+02	1.76900e+03	-0.0243923	674.5
1770	6.74295e+02	1.77000e+03	-0.024375	675.0
1771	6.74790e+02	1.77100e+03	-0.0243558	675.5
1772	6.75290e+02	1.77200e+03	-0.0243209	676.0
1773	6.75811e+02	1.77300e+03	-0.0242868	676.5
1774	6.76311e+02	1.77400e+03	-0.0242485	677.0
1775	6.76811e+02	1.77500e+03	-0.0242065	677.5
1776	6.77312e+02	1.77600e+03	-0.0241464	678.0
1777	6.77832e+02	1.77700e+03	-0.0240908	678.5
1778	6.78346e+02	1.77800e+03	-0.0240366	679.0
1779	6.78856e+02	1.77900e+03	-0.0239833	679.5
1780	6.79372e+02	1.78000e+03	-0.0239358	680.0
1781	6.79884e+02	1.78100e+03	-0.0239017	680.5
1782	6.80411e+02	1.78200e+03	-0.0238784	681.0
1783	6.80919e+02	1.78300e+03	-0.0238623	681.5
1784	6.81445e+02	1.78400e+03	-0.0238886	682.0
1785	6.81967e+02	1.78500e+03	-0.0239062	682.5
1786	6.82483e+02	1.78600e+03	-0.0239282	683.0
1787	6.82997e+02	1.78700e+03	-0.0239545	683.5
1788	6.83515e+02	1.78800e+03	-0.0240066	684.0
1789	6.84037e+02	1.78900e+03	-0.0240472	684.5
1790	6.84559e+02	1.79000e+03	-0.024086	685.0
1791	6.85086e+02	1.79100e+03	-0.0241248	685.5
1792	6.85613e+02	1.79200e+03	-0.0241608	686.0
1793	6.86138e+02	1.79300e+03	-0.0241928	686.5
1794	6.86652e+02	1.79400e+03	-0.0242208	687.0
1795	6.86886e+02	1.79500e+03	-0.0242458	687.5
1796	6.87104e+02	1.79600e+03	-0.0242518	688.0
1797	6.87422e+02	1.79700e+03	-0.0242583	688.5
1798	6.87785e+02	1.79800e+03	-0.02426	689.0
1799	6.88161e+02	1.79900e+03	-0.024258	689.5
1800	6.88542e+02	1.80000e+03	-0.0242367	690.0
1801	6.88897e+02	1.80100e+03	-0.0242277	690.5
1802	6.89262e+02	1.80200e+03	-0.0242269	691.0
1803	6.89603e+02	1.80300e+03	-0.0242322	691.5
1804	6.89949e+02	1.80400e+03	-0.024246	692.0
1805	6.90274e+02	1.80500e+03	-0.0242631	692.5
1806	6.90589e+02	1.80600e+03	-0.0242842	693.0
1807	6.90910e+02	1.80700e+03	-0.0243072	693.5
1808	6.91197e+02	1.80800e+03	-0.0243418	694.0
1809	6.91483e+02	1.80900e+03	-0.0243628	694.5
1810	6.91778e+02	1.81000e+03	-0.0243778	695.0
1811	6.92036e+02	1.81100e+03	-0.0243897	695.5
1812	6.92281e+02	1.81200e+03	-0.0243815	696.0
1813	6.92524e+02	1.81300e+03	-0.0243757	696.5
1814	6.92745e+02	1.81400e+03	-0.024365	697.0
1815	6.92984e+02	1.81500e+03	-0.0243505	697.5
1816	6.93210e+02	1.81600e+03	-0.0243219	698.0
1817	6.93435e+02	1.81700e+03	-0.0243	698.5
1818	6.93663e+02	1.81800e+03	-0.0242795	699.0
1819	6.93863e+02	1.81900e+03	-0.0242597	699.5
1820	6.94056e+02	1.82000e+03	-0.0242457	700.0
1821	6.94234e+02	1.82100e+03	-0.0242373	700.0
1822	6.94416e+02	1.82200e+03	-0.0242346	700.0
1823	6.94592e+02	1.82300e+03	-0.0242352	700.0
1824	6.94765e+02	1.82400e+03	-0.0242555	700.0
1825	6.94937e+02	1.82500e+03	-0.0242703	700.0
1826	6.95118e+02	1.82600e+03	-0.0242863	700.0
1827	6.95282e+02	1.82700e+03	-0.024304	700.0
1828	6.95441e+02	1.82800e+03	-0.0243306	700.0
1829	6.95589e+02	1.82900e+03	-0.0243501	700.0
1830	6.95750e+02	1.83000e+03	-0.0243647	700.0
1831	6.95894e+02	1.83100e+03	-0.0243772	700.0
1832	6.96020e+02	1.83200e+03	-0.0243807	700.0
1833	6.96138e+02	1.83300e+03	-0.0243798	700.0
1834	6.96280e+02	1.83400e+03	-0.0243731	700.0
1835	6.96420e+02	1.83500e+03	-0.0243638	700.0
1836	6.96527e+02	1.83600e+03	-0.0243406	700.0
1837	6.96648e+02	1.83700e+03	-0.024323	700.0
1838	6.96765e+02	1.83800e+03	-0.0243038	700.0
1839	6.96882e+02	1.83900e+03	-0.0242835	700.0
1840	6.96996e+02	1.84000e+03	-0.0242641	700.0
1841	6.97108e+02	1.84100e+03	-0.0242477	700.0
1842	6.97216e+02	1.84200e+03	-0.0242349	700.0
1843	6.97315e+02	1.84300e+03	-0.0242256	700.0
1844	6.97407e+02	1.84400e+03	-0.024228	700.0
1845	6.97518e+02	1.84500e+03	-0.0242313	700.0
1846	6.97611e+02	1.84600e+03	-0.0242366	700.0
1847	6.97698e+02	1.84700e+03	-0.0242419	700.0
1848	6.97790e+02	1.84800e+03	-0.0242615	700.0
1849	6.97877e+02	1.84900e+03	-0.0242764	700.0
1850	6.97964e+02	1.85000e+03	-0.0242902	700.0
1851	6.98042e+02	1.85100e+03	-0.0243032	700.0
1852	6.98122e+02	1.85200e+03	-0.0243148	700.0
1853	6.98197e+02	1.85300e+03	-0.0243245	700.0
1854	6.98275e+02	1.85400e+03	-0.0243323	700.0
1855	6.98353e+02	1.85500e+03	-0.0243389	700.0
1856	6.98430e+02	1.85600e+03	-0.0243386	700.0
1857	6.98504e+02	1.85700e+03	-0.0243419	700.0
1858	6.98577e+02	1.85800e+03	-0.0243479	700.0
1859	6.98639e+02	1.85900e+03	-0.0243552	700.0
1860	6.98714e+02	1.86000e+03	-0.0243592	700.0
1861	6.98775e+02	1.86100e+03	-0.0243634	700.0
1862	6.98847e+02	1.86200e+03	-0.0243696	700.0
1863	6.98913e+02	1.86300e+03	-0.0243773	700.0
1864	6.98975e+02	1.86400e+03	-0.0243821	700.0
1865	6.99035e+02	1.86500e+03	-0.0243842	700.0
1866	6.99097e+02	1.86600e+03	-0.0243832	700.0
1867	6.99152e+02	1.86700e+03	-0.02438	700.0
1868	6.99220e+02	1.86800e+03	-0.0243676	700.0
1869	6.99260e+02	1.86900e+03	-0.024356	700.0
1870	6.99305e+02	1.87000e+03	-0.0243432	700.0
1871	6.99358e+02	1.87100e+03	-0.0243296	700.0
1872	6.99411e+02	1.87200e+03	-0.0243101	700.0
1873	6.99456e+02	1.87300e+03	-0.0242962	700.0
1874	6.99506e+02	1.87400e+03	-0.0242864	700.0
1875	6.99550e+02	1.87500e+03	-0.0242804	700.0
1876	6.99590e+02	1.87600e+03	-0.0242876	700.0
1877	6.99644e+02	1.87700e+03	-0.0242928	700.0
1878	6.99686e+02	1.87800e+03	-0.0242984	700.0
1879	6.99733e+02	1.87900e+03	-0.0243047	700.0
1880	6.99771e+02	1.88000e+03	-0.0243206	700.0
1881	6.99806e+02	1.88100e+03	-0.0243292	700.0
1882	6.99857e+02	1.88200e+03	-0.0243356	700.0
1883	6.99893e+02	1.88300e+03	-0.0243411	700.0
1884	6.99937e+02	1.88400e+03	-0.0243406	700.0
1885	6.99973e+02	1.88500e+03	-0.0243431	700.0
1886	7.00011e+02	1.88600e+03	-0.0243465	700.0
1887	7.00053e+02	1.88700e+03	-0.0243503	700.0
1888	7.00086e+02	1.88800e+03	-0.0243547	700.0
1889	7.00123e+02	1.88900e+03	-0.024359	700.0
1890	7.00154e+02	1.89000e+03	-0.0243625	700.0
1891	7.00193e+02	1.89100e+03	-0.024365	700.0
1892	7.00235e+02	1.89200e+03	-0.0243643	700.0
1893	7.00253e+02	1.89300e+03	-0.0243611	700.0
1894	7.00271e+02	1.89400e+03	-0.0243556	700.0
1895	7.00298e+02	1.89500e+03	-0.0243487	700.0
1896	7.00310e+02	1.89600e+03	-0.0243326	700.0
1897	7.00337e+02	1.89700e+03	-0.0243204	700.0
1898	7.00372e+02	1.89800e+03	-0.0243087	700.0
1899	7.00392e+02	1.89900e+03	-0.024297	700.0
1900	7.00413e+02	1.90000e+03	-0.0242857	700.0
1901	7.00429e+02	1.90100e+03	-0.0242762	700.0
1902	7.00449e+02	1.90200e+03	-0.0242681	700.0
1903	7.00470e+02	1.90300e+03	-0.0242607	700.0
1904	7.00503e+02	1.90400e+03	-0.0242583	700.0
1905	7.00533e+02	1.90500e+03	-0.0242547	700.0
1906	7.00544e+02	1.90600e+03	-0.0242514	700.0
1907	7.00571e+02	1.90700e+03	-0.0242486	700.0
1908	7.00597e+02	1.90800e+03	-0.0242496	700.0
1909	7.00609e+02	1.90900e+03	-0.0242497	700.0
1910	7.00638e+02	1.91000e+03	-0.0242476	700.0
1911	7.00660e+02	1.91100e+03	-0.0242436	700.0
1912	7.00669e+02	1.91200e+03	-0.0242434	700.0
1913	7.00695e+02	1.91300e+03	-0.0242446	700.0
1914	7.00717e+02	1.91400e+03	-0.0242476	700.0
1915	7.00729e+02	1.91500e+03	-0.0242519	700.0
1916	7.00750e+02	1.91600e+03	-0.0242595	700.0
1917	7.00776e+02	1.91700e+03	-0.0242654	700.0
1918	7.00786e+02	1.91800e+03	-0.0242705	700.0
1919	7.00803e+02	1.91900e+03	-0.0242753	700.0
1920	7.00821e+02	1.92000e+03	-0.0242775	700.0
1921	7.00839e+02	1.92100e+03	-0.0242779	700.0
1922	7.00856e+02	1.92200e+03	-0.0242768	700.0
1923	7.00870e+02	1.92300e+03	-0.024275	700.0
1924	7.00883e+02	1.92400e+03	-0.0242674	700.0
1925	7.00898e+02	1.92500e+03	-0.0242632	700.0
1926	7.00903e+02	1.92600e+03	-0.0242602	700.0
1927	7.00920e+02	1.92700e+03	-0.0242578	700.0
1928	7.00934e+02	1.92800e+03	-0.0242603	700.0
1929	7.00944e+02	1.92900e+03	-0.0242649	700.0
1930	7.00960e+02	1.93000e+03	-0.0242728	700.0
1931	7.00965e+02	1.93100e+03	-0.0242832	700.0
1932	7.00982e+02	1.93200e+03	-0.0243012	700.0
1933	7.01001e+02	1.93300e+03	-0.0243139	700.0
1934	7.01011e+02	1.93400e+03	-0.0243265	700.0
1935	7.01024e+02	1.93500e+03	-0.0243398	700.0
1936	7.01039e+02	1.93600e+03	-0.0243534	700.0
1937	7.01052e+02	1.93700e+03	-0.0243666	700.0
1938	7.01070e+02	1.93800e+03	-0.0243796	700.0
1939	7.01084e+02	1.93900e+03	-0.0243922	700.0
1940	7.01106e+02	1.94000e+03	-0.0244027	700.0
1941	7.01093e+02	1.94100e+03	-0.0244122	700.0
1942	7.01112e+02	1.94200e+03	-0.0244206	700.0
1943	7.01116e+02	1.94300e+03	-0.0244282	700.0
1944	7.01135e+02	1.94400e+03	-0.0244296	700.0
1945	7.01138e+02	1.94500e+03	-0.0244275	700.0
1946	7.01152e+02	1.94600e+03	-0.0244204	700.0
1947	7.01163e+02	1.94700e+03	-0.0244111	700.0
1948	7.01164e+02	1.94800e+03	-0.0243905	700.0
1949	7.01187e+02	1.94900e+03	-0.0243727	700.0
1950	7.01183e+02	1.95000e+03	-0.0243542	700.0
1951	7.01189e+02	1.95100e+03	-0.0243348	700.0
1952	7.01204e+02	1.95200e+03	-0.0243078	700.0
1953	7.01209e+02	1.95300e+03	-0.024282	700.0
1954	7.01221e+02	1.95400e+03	-0.0242529	700.0
1955	7.01235e+02	1.95500e+03	-0.0242216	700.0
1956	7.01240e+02	1.95600e+03	-0.0241892	700.0
1957	7.01243e+02	1.95700e+03	-0.0241607	700.0
1958	7.01258e+02	1.95800e+03	-0.0241351	700.0
1959	7.01267e+02	1.95900e+03	-0.0241115	700.0
1960	7.01256e+02	1.96000e+03	-0.0240973	700.0
1961	7.01261e+02	1.96100e+03	-0.0240835	700.0
1962	7.01271e+02	1.96200e+03	-0.0240691	700.0
1963	7.01276e+02	1.96300e+03	-0.0240538	700.0
1964	7.01284e+02	1.96400e+03	-0.0240492	700.0
1965	7.01285e+02	1.96500e+03	-0.0240405	700.0
1966	7.01295e+02	1.96600e+03	-0.0240319	700.0
1967	7.01296e+02	1.96700e+03	-0.0240238	700.0
1968	7.01306e+02	1.96800e+03	-0.0240141	700.0
1969	7.01322e+02	1.96900e+03	-0.0240038	700.0
1970	7.01317e+02	1.97000e+03	-0.0239918	700.0
1971	7.01319e+02	1.97100e+03	-0.0239785	700.0
1972	7.01334e+02	1.97200e+03	-0.0239584	700.0
1973	7.01331e+02	1.97300e+03	-0.023937	700.0
1974	7.01334e+02	1.97400e+03	-0.0239135	700.0
1975	7.01352e+02	1.97500e+03	-0.0238887	700.0
1976	7.01361e+02	1.97600e+03	-0.0238566	700.0
1977	7.01366e+02	1.97700e+03	-0.0238313	700.0
1978	7.01369e+02	1.97800e+03	-0.0238105	700.0
1979	7.01375e+02	1.97900e+03	-0.0237926	700.0
1980	7.01381e+02	1.98000e+03	-0.0237916	700.0
1981	7.01382e+02	1.98100e+03	-0.0237939	700.0
1982	7.01379e+02	1.98200e+03	-0.0238023	700.0
1983	7.01381e+02	1.98300e+03	-0.0238151	700.0
1984	7.01387e+02	1.98400e+03	-0.023855	700.0
1985	7.01392e+02	1.98500e+03	-0.0238854	700.0
1986	7.01403e+02	1.98600e+03	-0.0239158	700.0
1987	7.01403e+02	1.98700e+03	-0.023947	700.0
1988	7.01404e+02	1.98800e+03	-0.0239832	700.0
1989	7.01402e+02	1.98900e+03	-0.0240134	700.0
1990	7.01412e+02	1.99000e+03	-0.0240391	700.0
1991	7.01409e+02	1.99100e+03	-0.0240607	700.0
1992	7.01416e+02	1.99200e+03	-0.0240683	700.0
1993	7.01424e+02	1.99300e+03	-0.0240799	700.0
1994	7.01434e+02	1.99400e+03	-0.0240928	700.0
1995	7.01436e+02	1.99500e+03	-0.0241064	700.0
1996	7.01437e+02	1.99600e+03	-0.0241166	700.0
1997	7.01439e+02	1.99700e+03	-0.0241341	700.0
1998	7.01436e+02	1.99800e+03	-0.0241543	700.0
1999	7.01441e+02	1.99900e+03	-0.0241753	700.0
2000	7.01446e+02	2.00000e+03	-0.024198	700.0
2001	7.01451e+02	2.00100e+03	-0.0242092	700.0
2002	7.01458e+02	2.00200e+03	-0.0242156	700.0
2003	7.01450e+02	2.00300e+03	-0.0242199	700.0
2004	7.01458e+02	2.00400e+03	-0.0242043	700.0
2005	7.01466e+02	2.00500e+03	-0.0241967	700.0
2006	7.01469e+02	2.00600e+03	-0.0241899	700.0
2007	7.01464e+02	2.00700e+03	-0.0241827	700.0
2008	7.01463e+02	2.00800e+03	-0.0241736	700.0
2009	7.01470e+02	2.00900e+03	-0.0241675	700.0
2010	7.01475e+02	2.01000e+03	-0.0241635	700.0
2011	7.01468e+02	2.01100e+03	-0.024161	700.0
2012	7.01480e+02	2.01200e+03	-0.024167	700.0
2013	7.01483e+02	2.01300e+03	-0.0241735	700.0
2014	7.01481e+02	2.01400e+03	-0.0241822	700.0
2015	7.01487e+02	2.01500e+03	-0.0241925	700.0
2016	7.01490e+02	2.01600e+03	-0.0242125	700.0
2017	7.01489e+02	2.01700e+03	-0.0242275	700.0
2018	7.01485e+02	2.01800e+03	-0.0242392	700.0
2019	7.01502e+02	2.01900e+03	-0.0242474	700.0
2020	7.01498e+02	2.02000e+03	-0.0242455	700.0
2021	7.01495e+02	2.02100e+03	-0.0242434	700.0
2022	7.01490e+02	2.02200e+03	-0.0242413	700.0
2023	7.01499e+02	2.02300e+03	-0.0242394	700.0
2024	7.01506e+02	2.02400e+03	-0.0242301	700.0
2025	7.01512e+02	2.02500e+03	-0.0242308	700.0
2026	7.01501e+02	2.02600e+03	-0.024234	700.0
2027	7.01509e+02	2.02700e+03	-0.0242363	700.0
2028	7.01503e+02	2.02800e+03	-0.0242465	700.0
2029	7.01506e+02	2.02900e+03	-0.0242512	700.0
2030	7.01504e+02	2.03000e+03	-0.0242552	700.0
2031	7.01507e+02	2.03100e+03	-0.0242586	700.0
2032	7.01513e+02	2.03200e+03	-0.0242504	700.0
2033	7.01515e+02	2.03300e+03	-0.0242419	700.0
2034	7.01521e+02	2.03400e+03	-0.0242296	700.0
2035	7.01514e+02	2.03500e+03	-0.024215	700.0
2036	7.01512e+02	2.03600e+03	-0.0241912	700.0
2037	7.01525e+02	2.03700e+03	-0.0241719	700.0
2038	7.01522e+02	2.03800e+03	-0.0241539	700.0
2039	7.01518e+02	2.03900e+03	-0.0241364	700.0
2040	7.01520e+02	2.04000e+03	-0.0241192	700.0
2041	7.01516e+02	2.04100e+03	-0.0241041	700.0
2042	7.01524e+02	2.04200e+03	-0.0240908	700.0
2043	7.01529e+02	2.04300e+03	-0.0240786	700.0
2044	7.01528e+02	2.04400e+03	-0.0240731	700.0
2045	7.01526e+02	2.04500e+03	-0.0240659	700.0
2046	7.01521e+02	2.04600e+03	-0.0240587	700.0
2047	7.01525e+02	2.04700e+03	-0.0240518	700.0
2048	7.01532e+02	2.04800e+03	-0.0240472	700.0
2049	7.01529e+02	2.04900e+03	-0.0240419	700.0
2050	7.01539e+02	2.05000e+03	-0.0240388	700.0
2051	7.01538e+02	2.05100e+03	-0.024038	700.0
2052	7.01530e+02	2.05200e+03	-0.0240467	700.0
2053	7.01532e+02	2.05300e+03	-0.0240594	700.0
2054	7.01535e+02	2.05400e+03	-0.0240763	700.0
2055	7.01545e+02	2.05500e+03	-0.0240955	700.0
2056	7.01538e+02	2.05600e+03	-0.0241292	700.0
2057	7.01541e+02	2.05700e+03	-0.0241484	700.0
2058	7.01536e+02	2.05800e+03	-0.0241578	700.0
2059	7.01542e+02	2.05900e+03	-0.0241622	700.0
2060	7.01541e+02	2.06000e+03	-0.024145	700.0
2061	7.01541e+02	2.06100e+03	-0.0241291	700.0
2062	7.01548e+02	2.06200e+03	-0.0241097	700.0
2063	7.01536e+02	2.06300e+03	-0.0240865	700.0
2064	7.01521e+02	2.06400e+03	-0.0240448	700.0
2065	7.01526e+02	2.06500e+03	-0.0240189	700.0
2066	7.01531e+02	2.06600e+03	-0.0239997	700.0
2067	7.01522e+02	2.06700e+03	-0.0239838	700.0
2068	7.01522e+02	2.06800e+03	-0.0239844	700.0
2069	7.01523e+02	2.06900e+03	-0.0239833	700.0
2070	7.01521e+02	2.07000e+03	-0.0239846	700.0
2071	7.01523e+02	2.07100e+03	-0.023988	700.0
2072	7.01525e+02	2.07200e+03	-0.0240053	700.0
2073	7.01531e+02	2.07300e+03	-0.0240163	700.0
2074	7.01525e+02	2.07400e+03	-0.0240269	700.0
2075	7.01528e+02	2.07500e+03	-0.024038	700.0
2076	7.01526e+02	2.07600e+03	-0.0240508	700.0
2077	7.01521e+02	2.07700e+03	-0.0240636	700.0
2078	7.01525e+02	2.07800e+03	-0.0240769	700.0
2079	7.01516e+02	2.07900e+03	-0.0240908	700.0
2080	7.01518e+02	2.08000e+03	-0.0241064	700.0
2081	7.01517e+02	2.08100e+03	-0.0241209	700.0
2082	7.01521e+02	2.08200e+03	-0.0241344	700.0
2083	7.01521e+02	2.08300e+03	-0.0241472	700.0
2084	7.01516e+02	2.08400e+03	-0.0241558	700.0
2085	7.01510e+02	2.08500e+03	-0.024162	700.0
2086	7.01512e+02	2.08600e+03	-0.0241651	700.0
2087	7.01512e+02	2.08700e+03	-0.0241662	700.0
2088	7.01512e+02	2.08800e+03	-0.0241544	700.0
2089	7.01504e+02	2.08900e+03	-0.0241444	700.0
2090	7.01507e+02	2.09000e+03	-0.0241309	700.0
2091	7.01510e+02	2.09100e+03	-0.0241129	700.0
2092	7.01503e+02	2.09200e+03	-0.0240792	700.0
2093	7.01512e+02	2.09300e+03	-0.0240513	700.0
2094	7.01511e+02	2.09400e+03	-0.0240261	700.0
2095	7.01512e+02	2.09500e+03	-0.0240025	700.0
2096	7.01514e+02	2.09600e+03	-0.0239814	700.0
2097	7.01502e+02	2.09700e+03	-0.0239697	700.0
2098	7.01506e+02	2.09800e+03	-0.0239646	700.0
2099	7.01505e+02	2.09900e+03	-0.0239635	700.0
2100	7.01510e+02	2.10000e+03	-0.0239888	700.0
2101	7.01509e+02	2.10100e+03	-0.0240065	700.0
2102	7.01501e+02	2.10200e+03	-0.0240254	700.0
2103	7.01501e+02	2.10300e+03	-0.0240461	700.0
2104	7.01495e+02	2.10400e+03	-0.0240762	700.0
2105	7.01501e+02	2.10500e+03	-0.0241003	700.0
2106	7.01500e+02	2.10600e+03	-0.0241222	700.0
2107	7.01500e+02	2.10700e+03	-0.0241429	700.0
2108	7.01499e+02	2.10800e+03	-0.0241559	700.0
2109	7.01503e+02	2.10900e+03	-0.0241667	700.0
2110	7.01503e+02	2.11000e+03	-0.0241738	700.0
2111	7.01506e+02	2.11100e+03	-0.0241783	700.0
2112	7.01494e+02	2.11200e+03	-0.0241679	700.0
2113	7.01492e+02	2.11300e+03	-0.0241619	700.0
2114	7.01507e+02	2.11400e+03	-0.0241557	700.0
2115	7.01495e+02	2.11500e+03	-0.024149	700.0
2116	7.01494e+02	2.11600e+03	-0.0241355	700.0
2117	7.01498e+02	2.11700e+03	-0.0241227	700.0
2118	7.01496e+02	2.11800e+03	-0.0241092	700.0
2119	7.01490e+02	2.11900e+03	-0.0240961	700.0
2120	7.01500e+02	2.12000e+03	-0.0240839	700.0
2121	7.01497e+02	2.12100e+03	-0.0240743	700.0
2122	7.01492e+02	2.12200e+03	-0.0240669	700.0
2123	7.01492e+02	2.12300e+03	-0.0240605	700.0
2124	7.01497e+02	2.12400e+03	-0.0240554	700.0
2125	7.01497e+02	2.12500e+03	-0.0240478	700.0
2126	7.01495e+02	2.12600e+03	-0.0240402	700.0
2127	7.01497e+02	2.12700e+03	-0.0240314	700.0
2128	7.01501e+02	2.12800e+03	-0.0240175	700.0
2129	7.01500e+02	2.12900e+03	-0.0240076	700.0
2130	7.01496e+02	2.13000e+03	-0.0240006	700.0
2131	7.01495e+02	2.13100e+03	-0.0239954	700.0
2132	7.01501e+02	2.13200e+03	-0.0239948	700.0
2133	7.01496e+02	2.13300e+03	-0.0239967	700.0
2134	7.01501e+02	2.13400e+03	-0.0240017	700.0
2135	7.01497e+02	2.13500e+03	-0.0240091	700.0
2136	7.01502e+02	2.13600e+03	-0.0240312	700.0
2137	7.01491e+02	2.13700e+03	-0.0240514	700.0
2138	7.01489e+02	2.13800e+03	-0.0240746	700.0
2139	7.01481e+02	2.13900e+03	-0.0241004	700.0
2140	7.01492e+02	2.14000e+03	-0.0241397	700.0
2141	7.01492e+02	2.14100e+03	-0.0241746	700.0
2142	7.01487e+02	2.14200e+03	-0.0242077	700.0
2143	7.01486e+02	2.14300e+03	-0.0242398	700.0
2144	7.01486e+02	2.14400e+03	-0.0242681	700.0
2145	7.01480e+02	2.14500e+03	-0.0242892	700.0
2146	7.01486e+02	2.14600e+03	-0.0243047	700.0
2147	7.01484e+02	2.14700e+03	-0.0243167	700.0
2148	7.01487e+02	2.14800e+03	-0.0243068	700.0
2149	7.01483e+02	2.14900e+03	-0.0243039	700.0
2150	7.01490e+02	2.15000e+03	-0.0243011	700.0
2151	7.01483e+02	2.15100e+03	-0.0242976	700.0
2152	7.01490e+02	2.15200e+03	-0.024285	700.0
2153	7.01493e+02	2.15300e+03	-0.0242745	700.0
2154	7.01484e+02	2.15400e+03	-0.0242651	700.0
2155	7.01479e+02	2.15500e+03	-0.0242571	700.0
2156	7.01478e+02	2.15600e+03	-0.0242519	700.0
2157	7.01475e+02	2.15700e+03	-0.0242463	700.0
2158	7.01474e+02	2.15800e+03	-0.0242396	700.0
2159	7.01468e+02	2.15900e+03	-0.0242334	700.0
2160	7.01467e+02	2.16000e+03	-0.0242335	700.0
2161	7.01467e+02	2.16100e+03	-0.0242333	700.0
2162	7.01467e+02	2.16200e+03	-0.0242383	700.0
2163	7.01471e+02	2.16300e+03	-0.0242475	700.0
2164	7.01462e+02	2.16400e+03	-0.0242622	700.0
2165	7.01461e+02	2.16500e+03	-0.0242749	700.0
2166	7.01452e+02	2.16600e+03	-0.0242872	700.0
2167	7.01454e+02	2.16700e+03	-0.0242992	700.0
2168	7.01454e+02	2.16800e+03	-0.0243136	700.0
2169	7.01461e+02	2.16900e+03	-0.0243237	700.0
2170	7.01457e+02	2.17000e+03	-0.0243317	700.0
2171	7.01458e+02	2.17100e+03	-0.0243387	700.0
2172	7.01463e+02	2.17200e+03	-0.0243381	700.0
2173	7.01457e+02	2.17300e+03	-0.0243395	700.0
2174	7.01459e+02	2.17400e+03	-0.0243375	700.0
2175	7.01459e+02	2.17500e+03	-0.0243319	700.0
2176	7.01453e+02	2.17600e+03	-0.0243189	700.0
2177	7.01454e+02	2.17700e+03	-0.0243079	700.0
2178	7.01461e+02	2.17800e+03	-0.0242973	700.0
2179	7.01460e+02	2.17900e+03	-0.0242869	700.0
2180	7.01462e+02	2.18000e+03	-0.0242729	700.0
2181	7.01463e+02	2.18100e+03	-0.0242643	700.0
2182	7.01451e+02	2.18200e+03	-0.0242586	700.0
2183	7.01458e+02	2.18300e+03	-0.0242547	700.0
2184	7.01452e+02	2.18400e+03	-0.0242613	700.0
2185	7.01452e+02	2.18500e+03	-0.0242662	700.0
2186	7.01450e+02	2.18600e+03	-0.0242731	700.0
2187	7.01449e+02	2.18700e+03	-0.0242816	700.0
2188	7.01444e+02	2.18800e+03	-0.0242939	700.0
2189	7.01448e+02	2.18900e+03	-0.0243001	700.0
2190	7.01450e+02	2.19000e+03	-0.0243044	700.0
2191	7.01446e+02	2.19100e+03	-0.0243079	700.0
2192	7.01449e+02	2.19200e+03	-0.0243001	700.0
2193	7.01437e+02	2.19300e+03	-0.0242929	700.0
2194	7.01434e+02	2.19400e+03	-0.024285	700.0
2195	7.01428e+02	2.19500e+03	-0.0242754	700.0
2196	7.01424e+02	2.19600e+03	-0.0242534	700.0
2197	7.01426e+02	2.19700e+03	-0.0242374	700.0
2198	7.01412e+02	2.19800e+03	-0.0242245	700.0
2199	7.01417e+02	2.19900e+03	-0.0242133	700.0
2200	7.01419e+02	2.20000e+03	-0.0242062	700.0
2201	7.01430e+02	2.20100e+03	-0.0242024	700.0
2202	7.01419e+02	2.20200e+03	-0.0242014	700.0
2203	7.01416e+02	2.20300e+03	-0.024202	700.0
2204	7.01423e+02	2.20400e+03	-0.0242136	700.0
2205	7.01414e+02	2.20500e+03	-0.0242195	700.0
2206	7.01417e+02	2.20600e+03	-0.0242243	700.0
2207	7.01417e+02	2.20700e+03	-0.0242291	700.0
2208	7.01413e+02	2.20800e+03	-0.0242312	700.0
2209	7.01421e+02	2.20900e+03	-0.0242313	700.0
2210	7.01417e+02	2.21000e+03	-0.0242282	700.0
2211	7.01404e+02	2.21100e+03	-0.0242225	700.0
2212	7.01406e+02	2.21200e+03	-0.0242047	700.0
2213	7.01408e+02	2.21300e+03	-0.0241868	700.0
2214	7.01406e+02	2.21400e+03	-0.0241666	700.0
2215	7.01405e+02	2.21500e+03	-0.0241447	700.0
2216	7.01405e+02	2.21600e+03	-0.0241058	700.0
2217	7.01412e+02	2.21700e+03	-0.0240717	700.0
2218	7.01409e+02	2.21800e+03	-0.0240406	700.0
2219	7.01403e+02	2.21900e+03	-0.0240115	700.0
2220	7.01398e+02	2.22000e+03	-0.0239899	700.0
2221	7.01398e+02	2.22100e+03	-0.0239779	700.0
2222	7.01394e+02	2.22200e+03	-0.023975	700.0
2223	7.01391e+02	2.22300e+03	-0.0239779	700.0
2224	7.01391e+02	2.22400e+03	-0.0240153	700.0
2225	7.01377e+02	2.22500e+03	-0.0240441	700.0
2226	7.01391e+02	2.22600e+03	-0.024075	700.0
2227	7.01395e+02	2.22700e+03	-0.0241085	700.0
2228	7.01388e+02	2.22800e+03	-0.0241576	700.0
2229	7.01388e+02	2.22900e+03	-0.0241972	700.0
2230	7.01384e+02	2.23000e+03	-0.024234	700.0
2231	7.01394e+02	2.23100e+03	-0.0242699	700.0
2232	7.01379e+02	2.23200e+03	-0.0242986	700.0
2233	7.01379e+02	2.23300e+03	-0.0243267	700.0
2234	7.01377e+02	2.23400e+03	-0.0243524	700.0
2235	7.01387e+02	2.23500e+03	-0.0243762	700.0
2236	7.01387e+02	2.23600e+03	-0.0243884	700.0
2237	7.01380e+02	2.23700e+03	-0.0244026	700.0
2238	7.01382e+02	2.23800e+03	-0.0244151	700.0
2239	7.01379e+02	2.23900e+03	-0.0244261	700.0
2240	7.01377e+02	2.24000e+03	-0.0244281	700.0
2241	7.01382e+02	2.24100e+03	-0.0244328	700.0
2242	7.01379e+02	2.24200e+03	-0.0244372	700.0
2243	7.01375e+02	2.24300e+03	-0.0244408	700.0
2244	7.01373e+02	2.24400e+03	-0.0244408	700.0
2245	7.01370e+02	2.24500e+03	-0.024442	700.0
2246	7.01367e+02	2.24600e+03	-0.0244432	700.0
2247	7.01375e+02	2.24700e+03	-0.0244442	700.0
2248	7.01366e+02	2.24800e+03	-0.0244441	700.0
2249	7.01368e+02	2.24900e+03	-0.0244443	700.0
2250	7.01373e+02	2.25000e+03	-0.0244446	700.0
2251	7.01374e+02	2.25100e+03	-0.0244449	700.0
2252	7.01373e+02	2.25200e+03	-0.0244448	700.0
2253	7.01380e+02	2.25300e+03	-0.0244449	700.0
2254	7.01373e+02	2.25400e+03	-0.0244449	700.0
2255	7.01368e+02	2.25500e+03	-0.024445	700.0
2256	7.01365e+02	2.25600e+03	-0.0244443	700.0
2257	7.01365e+02	2.25700e+03	-0.0244407	700.0
2258	7.01367e+02	2.25800e+03	-0.024433	700.0
2259	7.01370e+02	2.25900e+03	-0.0244235	700.0
2260	7.01359e+02	2.26000e+03	-0.0244114	700.0
2261	7.01363e+02	2.26100e+03	-0.0244032	700.0
2262	7.01368e+02	2.26200e+03	-0.024398	700.0
2263	7.01374e+02	2.26300e+03	-0.0243951	700.0
2264	7.01368e+02	2.26400e+03	-0.0244018	700.0
2265	7.01369e+02	2.26500e+03	-0.0244111	700.0
2266	7.01365e+02	2.26600e+03	-0.0244241	700.0
2267	7.01360e+02	2.26700e+03	-0.0244397	700.0
2268	7.01364e+02	2.26800e+03	-0.0244705	700.0
2269	7.01357e+02	2.26900e+03	-0.0244936	700.0
2270	7.01354e+02	2.27000e+03	-0.0245144	700.0
2271	7.01363e+02	2.27100e+03	-0.0245342	700.0
2272	7.01349e+02	2.27200e+03	-0.0245472	700.0
2273	7.01351e+02	2.27300e+03	-0.0245531	700.0
2274	7.01348e+02	2.27400e+03	-0.0245517	700.0
2275	7.01339e+02	2.27500e+03	-0.0245469	700.0
2276	7.01348e+02	2.27600e+03	-0.0245227	700.0
2277	7.01351e+02	2.27700e+03	-0.0245053	700.0
2278	7.01350e+02	2.27800e+03	-0.0244875	700.0
2279	7.01346e+02	2.27900e+03	-0.0244685	700.0
2280	7.01337e+02	2.28000e+03	-0.0244417	700.0
2281	7.01344e+02	2.28100e+03	-0.0244185	700.0
2282	7.01337e+02	2.28200e+03	-0.0243966	700.0
2283	7.01339e+02	2.28300e+03	-0.0243754	700.0
2284	7.01338e+02	2.28400e+03	-0.0243586	700.0
2285	7.01319e+02	2.28500e+03	-0.0243454	700.0
2286	7.01326e+02	2.28600e+03	-0.0243367	700.0
2287	7.01334e+02	2.28700e+03	-0.0243313	700.0
2288	7.01322e+02	2.28800e+03	-0.0243382	700.0
2289	7.01310e+02	2.28900e+03	-0.0243412	700.0
2290	7.01317e+02	2.29000e+03	-0.0243477	700.0
2291	7.01314e+02	2.29100e+03	-0.0243575	700.0
2292	7.01323e+02	2.29200e+03	-0.0243804	700.0
2293	7.01315e+02	2.29300e+03	-0.0244026	700.0
2294	7.01316e+02	2.29400e+03	-0.024427	700.0
2295	7.01314e+02	2.29500e+03	-0.0244529	700.0
2296	7.01304e+02	2.29600e+03	-0.0244886	700.0
2297	7.01307e+02	2.29700e+03	-0.0245168	700.0
2298	7.01308e+02	2.29800e+03	-0.024543	700.0
2299	7.01303e+02	2.29900e+03	-0.0245692	700.0
2300	7.01298e+02	2.30000e+03	-0.0245938	700.0
2301	7.01300e+02	2.30100e+03	-0.0246197	700.0
2302	7.01305e+02	2.30200e+03	-0.024643	700.0
2303	7.01306e+02	2.30300e+03	-0.0246642	700.0
2304	7.01300e+02	2.30400e+03	-0.0246797	700.0
2305	7.01297e+02	2.30500e+03	-0.0246912	700.0
2306	7.01297e+02	2.30600e+03	-0.0246988	700.0
2307	7.01294e+02	2.30700e+03	-0.0247038	700.0
2308	7.01305e+02	2.30800e+03	-0.0246865	700.0
2309	7.01297e+02	2.30900e+03	-0.0246719	700.0
2310	7.01298e+02	2.31000e+03	-0.0246555	700.0
2311	7.01298e+02	2.31100e+03	-0.0246363	700.0
2312	7.01297e+02	2.31200e+03	-0.0245998	700.0
2313	7.01294e+02	2.31300e+03	-0.0245712	700.0
2314	7.01294e+02	2.31400e+03	-0.0245457	700.0
2315	7.01285e+02	2.31500e+03	-0.0245216	700.0
2316	7.01292e+02	2.31600e+03	-0.0245001	700.0
2317	7.01289e+02	2.31700e+03	-0.0244827	700.0
2318	7.01289e+02	2.31800e+03	-0.0244686	700.0
2319	7.01286e+02	2.31900e+03	-0.0244564	700.0
2320	7.01285e+02	2.32000e+03	-0.0244566	700.0
2321	7.01285e+02	2.32100e+03	-0.0244514	700.0
2322	7.01286e+02	2.32200e+03	-0.0244454	700.0
2323	7.01276e+02	2.32300e+03	-0.0244393	700.0
2324	7.01278e+02	2.32400e+03	-0.0244333	700.0
2325	7.01274e+02	2.32500e+03	-0.0244256	700.0
2326	7.01283e+02	2.32600e+03	-0.0244155	700.0
2327	7.01287e+02	2.32700e+03	-0.0244021	700.0
2328	7.01286e+02	2.32800e+03	-0.0243796	700.0
2329	7.01274e+02	2.32900e+03	-0.0243604	700.0
2330	7.01271e+02	2.33000e+03	-0.0243436	700.0
2331	7.01264e+02	2.33100e+03	-0.0243285	700.0
2332	7.01273e+02	2.33200e+03	-0.0243159	700.0
2333	7.01267e+02	2.33300e+03	-0.0243104	700.0
2334	7.01277e+02	2.33400e+03	-0.02431	700.0
2335	7.01270e+02	2.33500e+03	-0.0243124	700.0
2336	7.01275e+02	2.33600e+03	-0.0243343	700.0
2337	7.01267e+02	2.33700e+03	-0.0243487	700.0
2338	7.01270e+02	2.33800e+03	-0.0243628	700.0
2339	7.01270e+02	2.33900e+03	-0.0243777	700.0
2340	7.01269e+02	2.34000e+03	-0.0243963	700.0
2341	7.01258e+02	2.34100e+03	-0.0244124	700.0
2342	7.01268e+02	2.34200e+03	-0.0244279	700.0
2343	7.01271e+02	2.34300e+03	-0.0244432	700.0
2344	7.01259e+02	2.34400e+03	-0.024457	700.0
2345	7.01260e+02	2.34500e+03	-0.0244709	700.0
2346	7.01261e+02	2.34600e+03	-0.0244842	700.0
2347	7.01257e+02	2.34700e+03	-0.024497	700.0
2348	7.01266e+02	2.34800e+03	-0.0245066	700.0
2349	7.01259e+02	2.34900e+03	-0.0245156	700.0
2350	7.01259e+02	2.35000e+03	-0.0245236	700.0
2351	7.01254e+02	2.35100e+03	-0.0245307	700.0
2352	7.01251e+02	2.35200e+03	-0.0245285	700.0
2353	7.01250e+02	2.35300e+03	-0.0245241	700.0
2354	7.01251e+02	2.35400e+03	-0.0245173	700.0
2355	7.01247e+02	2.35500e+03	-0.0245098	700.0
2356	7.01252e+02	2.35600e+03	-0.0244957	700.0
2357	7.01249e+02	2.35700e+03	-0.0244883	700.0
2358	7.01246e+02	2.35800e+03	-0.024484	700.0
2359	7.01244e+02	2.35900e+03	-0.0244812	700.0
2360	7.01239e+02	2.36000e+03	-0.0244877	700.0
2361	7.01241e+02	2.36100e+03	-0.0244924	700.0
2362	7.01242e+02	2.36200e+03	-0.0244962	700.0
2363	7.01240e+02	2.36300e+03	-0.0244984	700.0
2364	7.01233e+02	2.36400e+03	-0.0245051	700.0
2365	7.01241e+02	2.36500e+03	-0.0245114	700.0
2366	7.01244e+02	2.36600e+03	-0.0245201	700.0
2367	7.01236e+02	2.36700e+03	-0.0245306	700.0
2368	7.01237e+02	2.36800e+03	-0.0245451	700.0
2369	7.01232e+02	2.36900e+03	-0.024561	700.0
2370	7.01234e+02	2.37000e+03	-0.0245774	700.0
2371	7.01244e+02	2.37100e+03	-0.0245939	700.0
2372	7.01232e+02	2.37200e+03	-0.0246131	700.0
2373	7.01236e+02	2.37300e+03	-0.0246289	700.0
2374	7.01231e+02	2.37400e+03	-0.0246437	700.0
2375	7.01231e+02	2.37500e+03	-0.0246567	700.0
2376	7.01237e+02	2.37600e+03	-0.0246555	700.0
2377	7.01227e+02	2.37700e+03	-0.0246541	700.0
2378	7.01231e+02	2.37800e+03	-0.0246488	700.0
2379	7.01232e+02	2.37900e+03	-0.0246405	700.0
2380	7.01229e+02	2.38000e+03	-0.0246177	700.0
2381	7.01226e+02	2.38100e+03	-0.0246003	700.0
2382	7.01226e+02	2.38200e+03	-0.0245822	700.0
2383	7.01222e+02	2.38300e+03	-0.0245614	700.0
2384	7.01224e+02	2.38400e+03	-0.0245341	700.0
2385	7.01230e+02	2.38500e+03	-0.0245119	700.0
2386	7.01219e+02	2.38600e+03	-0.024493	700.0
2387	7.01223e+02	2.38700e+03	-0.0244762	700.0
2388	7.01222e+02	2.38800e+03	-0.0244668	700.0
2389	7.01218e+02	2.38900e+03	-0.0244613	700.0
2390	7.01216e+02	2.39000e+03	-0.0244604	700.0
2391	7.01218e+02	2.39100e+03	-0.0244627	700.0
2392	7.01225e+02	2.39200e+03	-0.0244841	700.0
2393	7.01222e+02	2.39300e+03	-0.0244996	700.0
2394	7.01225e+02	2.39400e+03	-0.024515	700.0
2395	7.01219e+02	2.39500e+03	-0.024531	700.0
2396	7.01217e+02	2.39600e+03	-0.0245502	700.0
2397	7.01214e+02	2.39700e+03	-0.0245637	700.0
2398	7.01218e+02	2.39800e+03	-0.0245732	700.0
2399	7.01223e+02	2.39900e+03	-0.024579	700.0
2400	7.01222e+02	2.40000e+03	-0.024568	700.0
2401	7.01223e+02	2.40100e+03	-0.0245599	700.0
2402	7.01212e+02	2.40200e+03	-0.024552	700.0
2403	7.01210e+02	2.40300e+03	-0.024544	700.0
2404	7.01215e+02	2.40400e+03	-0.0245286	700.0
2405	7.01218e+02	2.40500e+03	-0.0245225	700.0
2406	7.01218e+02	2.40600e+03	-0.0245207	700.0
2407	7.01214e+02	2.40700e+03	-0.024521	700.0
2408	7.01218e+02	2.40800e+03	-0.024535	700.0
2409	7.01212e+02	2.40900e+03	-0.0245443	700.0
2410	7.01205e+02	2.41000e+03	-0.0245538	700.0
2411	7.01205e+02	2.41100e+03	-0.0245639	700.0
2412	7.01200e+02	2.41200e+03	-0.0245765	700.0
2413	7.01202e+02	2.41300e+03	-0.0245856	700.0
2414	7.01201e+02	2.41400e+03	-0.0245925	700.0
2415	7.01197e+02	2.41500e+03	-0.0245982	700.0
2416	7.01199e+02	2.41600e+03	-0.0245962	700.0
2417	7.01201e+02	2.41700e+03	-0.0245947	700.0
2418	7.01193e+02	2.41800e+03	-0.024592	700.0
2419	7.01199e+02	2.41900e+03	-0.0245883	700.0
2420	7.01197e+02	2.42000e+03	-0.0245727	700.0
2421	7.01193e+02	2.42100e+03	-0.0245572	700.0
2422	7.01187e+02	2.42200e+03	-0.0245414	700.0
2423	7.01185e+02	2.42300e+03	-0.0245257	700.0
2424	7.01190e+02	2.42400e+03	-0.0245069	700.0
2425	7.01186e+02	2.42500e+03	-0.0244954	700.0
2426	7.01191e+02	2.42600e+03	-0.0244888	700.0
2427	7.01186e+02	2.42700e+03	-0.0244852	700.0
2428	7.01188e+02	2.42800e+03	-0.0244982	700.0
2429	7.01185e+02	2.42900e+03	-0.024509	700.0
2430	7.01194e+02	2.43000e+03	-0.0245223	700.0
2431	7.01183e+02	2.43100e+03	-0.0245379	700.0
2432	7.01182e+02	2.43200e+03	-0.0245658	700.0
2433	7.01181e+02	2.43300e+03	-0.0245873	700.0
2434	7.01179e+02	2.43400e+03	-0.0246067	700.0
2435	7.01181e+02	2.43500e+03	-0.024625	700.0
2436	7.01187e+02	2.43600e+03	-0.024637	700.0
2437	7.01180e+02	2.43700e+03	-0.0246458	700.0
2438	7.01173e+02	2.43800e+03	-0.0246508	700.0
2439	7.01174e+02	2.43900e+03	-0.0246535	700.0
2440	7.01169e+02	2.44000e+03	-0.0246416	700.0
2441	7.01177e+02	2.44100e+03	-0.0246353	700.0
2442	7.01171e+02	2.44200e+03	-0.0246296	700.0
2443	7.01171e+02	2.44300e+03	-0.0246238	700.0
2444	7.01167e+02	2.44400e+03	-0.0246179	700.0
2445	7.01162e+02	2.44500e+03	-0.0246154	700.0
2446	7.01174e+02	2.44600e+03	-0.0246148	700.0
2447	7.01167e+02	2.44700e+03	-0.0246152	700.0
2448	7.01164e+02	2.44800e+03	-0.0246222	700.0
2449	7.01169e+02	2.44900e+03	-0.024626	700.0
2450	7.01173e+02	2.45000e+03	-0.0246293	700.0
2451	7.01164e+02	2.45100e+03	-0.0246325	700.0
2452	7.01165e+02	2.45200e+03	-0.0246353	700.0
2453	7.01170e+02	2.45300e+03	-0.0246367	700.0
2454	7.01166e+02	2.45400e+03	-0.0246337	700.0
2455	7.01161e+02	2.45500e+03	-0.0246273	700.0
2456	7.01167e+02	2.45600e+03	-0.0246147	700.0
2457	7.01165e+02	2.45700e+03	-0.024604	700.0
2458	7.01167e+02	2.45800e+03	-0.0245938	700.0
2459	7.01160e+02	2.45900e+03	-0.0245838	700.0
2460	7.01166e+02	2.46000e+03	-0.0245708	700.0
2461	7.01158e+02	2.46100e+03	-0.024562	700.0
2462	7.01155e+02	2.46200e+03	-0.0245552	700.0
2463	7.01158e+02	2.46300e+03	-0.0245494	700.0
2464	7.01160e+02	2.46400e+03	-0.0245516	700.0
2465	7.01165e+02	2.46500e+03	-0.0245521	700.0
2466	7.01160e+02	2.46600e+03	-0.0245539	700.0
2467	7.01150e+02	2.46700e+03	-0.0245567	700.0
2468	7.01149e+02	2.46800e+03	-0.0245659	700.0
2469	7.01151e+02	2.46900e+03	-0.0245734	700.0
2470	7.01158e+02	2.47000e+03	-0.024579	700.0
2471	7.01149e+02	2.47100e+03	-0.0245821	700.0
2472	7.01151e+02	2.47200e+03	-0.0245825	700.0
2473	7.01156e+02	2.47300e+03	-0.0245821	700.0
2474	7.01153e+02	2.47400e+03	-0.0245821	700.0
2475	7.01154e+02	2.47500e+03	-0.0245825	700.0
2476	7.01150e+02	2.47600e+03	-0.024579	700.0
2477	7.01142e+02	2.47700e+03	-0.0245807	700.0
2478	7.01152e+02	2.47800e+03	-0.0245839	700.0
2479	7.01146e+02	2.47900e+03	-0.0245875	700.0
2480	7.01152e+02	2.48000e+03	-0.0245956	700.0
2481	7.01147e+02	2.48100e+03	-0.0245989	700.0
2482	7.01143e+02	2.48200e+03	-0.0246007	700.0
2483	7.01153e+02	2.48300e+03	-0.0246022	700.0
2484	7.01148e+02	2.48400e+03	-0.024599	700.0
2485	7.01151e+02	2.48500e+03	-0.0245988	700.0
2486	7.01151e+02	2.48600e+03	-0.0245994	700.0
2487	7.01146e+02	2.48700e+03	-0.0246004	700.0
2488	7.01144e+02	2.48800e+03	-0.0246036	700.0
2489	7.01143e+02	2.48900e+03	-0.0246041	700.0
2490	7.01134e+02	2.49000e+03	-0.0246009	700.0
2491	7.01135e+02	2.49100e+03	-0.0245955	700.0
2492	7.01129e+02	2.49200e+03	-0.0245879	700.0
2493	7.01139e+02	2.49300e+03	-0.0245809	700.0
2494	7.01136e+02	2.49400e+03	-0.0245742	700.0
2495	7.01135e+02	2.49500e+03	-0.0245678	700.0
2496	7.01138e+02	2.49600e+03	-0.0245649	700.0
2497	7.01137e+02	2.49700e+03	-0.0245683	700.0
2498	7.01140e+02	2.49800e+03	-0.0245749	700.0
2499	7.01135e+02	2.49900e+03	-0.0245827	700.0
2500	7.01137e+02	2.50000e+03	-0.0246036	700.0
2501	7.01140e+02	2.50100e+03	-0.0246181	700.0
2502	7.01137e+02	2.50200e+03	-0.0246315	700.0
2503	7.01143e+02	2.50300e+03	-0.0246449	700.0
2504	7.01138e+02	2.50400e+03	-0.0246585	700.0
2505	7.01143e+02	2.50500e+03	-0.0246717	700.0
2506	7.01133e+02	2.50600e+03	-0.0246841	700.0
2507	7.01132e+02	2.50700e+03	-0.0246955	700.0
2508	7.01140e+02	2.50800e+03	-0.0246961	700.0
2509	7.01152e+02	2.50900e+03	-0.0246892	700.0
2510	7.01141e+02	2.51000e+03	-0.0246764	700.0
2511	7.01131e+02	2.51100e+03	-0.0246613	700.0
2512	7.01121e+02	2.51200e+03	-0.0246275	700.0
2513	7.01134e+02	2.51300e+03	-0.0246048	700.0
2514	7.01134e+02	2.51400e+03	-0.0245881	700.0
2515	7.01133e+02	2.51500e+03	-0.0245753	700.0
2516	7.01126e+02	2.51600e+03	-0.0245723	700.0
2517	7.01126e+02	2.51700e+03	-0.024574	700.0
2518	7.01125e+02	2.51800e+03	-0.0245817	700.0
2519	7.01136e+02	2.51900e+03	-0.024592	700.0
2520	7.01128e+02	2.52000e+03	-0.0246209	700.0
2521	7.01130e+02	2.52100e+03	-0.0246408	700.0
2522	7.01121e+02	2.52200e+03	-0.0246586	700.0
2523	7.01130e+02	2.52300e+03	-0.0246759	700.0
2524	7.01136e+02	2.52400e+03	-0.0246915	700.0
2525	7.01132e+02	2.52500e+03	-0.0247047	700.0
2526	7.01125e+02	2.52600e+03	-0.024716	700.0
2527	7.01134e+02	2.52700e+03	-0.0247261	700.0
2528	7.01130e+02	2.52800e+03	-0.0247269	700.0
2529	7.01131e+02	2.52900e+03	-0.0247256	700.0
2530	7.01131e+02	2.53000e+03	-0.0247201	700.0
2531	7.01127e+02	2.53100e+03	-0.0247133	700.0
2532	7.01129e+02	2.53200e+03	-0.0246998	700.0
2533	7.01127e+02	2.53300e+03	-0.024692	700.0
2534	7.01123e+02	2.53400e+03	-0.0246868	700.0
2535	7.01117e+02	2.53500e+03	-0.024683	700.0
2536	7.01118e+02	2.53600e+03	-0.0246858	700.0
2537	7.01121e+02	2.53700e+03	-0.0246887	700.0
2538	7.01127e+02	2.53800e+03	-0.024693	700.0
2539	7.01131e+02	2.53900e+03	-0.0246981	700.0
2540	7.01125e+02	2.54000e+03	-0.0247095	700.0
2541	7.01123e+02	2.54100e+03	-0.0247168	700.0
2542	7.01120e+02	2.54200e+03	-0.024723	700.0
2543	7.01126e+02	2.54300e+03	-0.0247289	700.0
2544	7.01123e+02	2.54400e+03	-0.024732	700.0
2545	7.01123e+02	2.54500e+03	-0.0247356	700.0
2546	7.01123e+02	2.54600e+03	-0.0247393	700.0
2547	7.01127e+02	2.54700e+03	-0.0247429	700.0
2548	7.01128e+02	2.54800e+03	-0.024746	700.0
2549	7.01120e+02	2.54900e+03	-0.02475	700.0
2550	7.01121e+02	2.55000e+03	-0.0247535	700.0
2551	7.01119e+02	2.55100e+03	-0.0247564	700.0
2552	7.01115e+02	2.55200e+03	-0.0247575	700.0
2553	7.01113e+02	2.55300e+03	-0.0247558	700.0
2554	7.01128e+02	2.55400e+03	-0.0247512	700.0
2555	7.01120e+02	2.55500e+03	-0.0247446	700.0
2556	7.01118e+02	2.55600e+03	-0.0247276	700.0
2557	7.01114e+02	2.55700e+03	-0.0247133	700.0
2558	7.01124e+02	2.55800e+03	-0.024699	700.0
2559	7.01126e+02	2.55900e+03	-0.0246846	700.0
2560	7.01125e+02	2.56000e+03	-0.0246685	700.0
2561	7.01126e+02	2.56100e+03	-0.0246572	700.0
2562	7.01132e+02	2.56200e+03	-0.0246489	700.0
2563	7.01125e+02	2.56300e+03	-0.0246423	700.0
2564	7.01123e+02	2.56400e+03	-0.0246479	700.0
2565	7.01123e+02	2.56500e+03	-0.0246515	700.0
2566	7.01116e+02	2.56600e+03	-0.0246548	700.0
2567	7.01121e+02	2.56700e+03	-0.0246576	700.0
2568	7.01124e+02	2.56800e+03	-0.02467	700.0
2569	7.01120e+02	2.56900e+03	-0.0246811	700.0
2570	7.01115e+02	2.57000e+03	-0.024694	700.0
2571	7.01121e+02	2.57100e+03	-0.0247084	700.0
2572	7.01128e+02	2.57200e+03	-0.0247272	700.0
2573	7.01123e+02	2.57300e+03	-0.0247444	700.0
2574	7.01118e+02	2.57400e+03	-0.0247618	700.0
2575	7.01121e+02	2.57500e+03	-0.0247795	700.0
2576	7.01114e+02	2.57600e+03	-0.0247983	700.0
2577	7.01117e+02	2.57700e+03	-0.0248154	700.0
2578	7.01112e+02	2.57800e+03	-0.0248311	700.0
2579	7.01111e+02	2.57900e+03	-0.0248459	700.0
2580	7.01109e+02	2.58000e+03	-0.0248557	700.0
2581	7.01108e+02	2.58100e+03	-0.0248648	700.0
2582	7.01116e+02	2.58200e+03	-0.0248702	700.0
2583	7.01112e+02	2.58300e+03	-0.0248709	700.0
2584	7.01106e+02	2.58400e+03	-0.0248528	700.0
2585	7.01114e+02	2.58500e+03	-0.0248352	700.0
2586	7.01104e+02	2.58600e+03	-0.0248149	700.0
2587	7.01113e+02	2.58700e+03	-0.0247925	700.0
2588	7.01121e+02	2.58800e+03	-0.0247511	700.0
2589	7.01111e+02	2.58900e+03	-0.0247208	700.0
2590	7.01109e+02	2.59000e+03	-0.0246942	700.0
2591	7.01102e+02	2.59100e+03	-0.024669	700.0
2592	7.01115e+02	2.59200e+03	-0.0246534	700.0
2593	7.01111e+02	2.59300e+03	-0.0246388	700.0
2594	7.01110e+02	2.59400e+03	-0.0246273	700.0
2595	7.01108e+02	2.59500e+03	-0.024618	700.0
2596	7.01109e+02	2.59600e+03	-0.0246225	700.0
2597	7.01110e+02	2.59700e+03	-0.0246226	700.0
2598	7.01119e+02	2.59800e+03	-0.0246233	700.0
2599	7.01112e+02	2.59900e+03	-0.024625	700.0
2600	7.01109e+02	2.60000e+03	-0.0246328	700.0
2601	7.01105e+02	2.60100e+03	-0.0246391	700.0
2602	7.01112e+02	2.60200e+03	-0.024646	700.0
2603	7.01110e+02	2.60300e+03	-0.0246535	700.0
2604	7.01109e+02	2.60400e+03	-0.0246648	700.0
2605	7.01105e+02	2.60500e+03	-0.0246752	700.0
2606	7.01107e+02	2.60600e+03	-0.0246855	700.0
2607	7.01114e+02	2.60700e+03	-0.0246958	700.0
2608	7.01116e+02	2.60800e+03	-0.0247063	700.0
2609	7.01114e+02	2.60900e+03	-0.024715	700.0
2610	7.01107e+02	2.61000e+03	-0.0247226	700.0
2611	7.01117e+02	2.61100e+03	-0.0247294	700.0
2612	7.01110e+02	2.61200e+03	-0.0247307	700.0
2613	7.01113e+02	2.61300e+03	-0.0247322	700.0
2614	7.01109e+02	2.61400e+03	-0.0247321	700.0
2615	7.01107e+02	2.61500e+03	-0.0247307	700.0
2616	7.01103e+02	2.61600e+03	-0.0247225	700.0
2617	7.01104e+02	2.61700e+03	-0.0247162	700.0
2618	7.01114e+02	2.61800e+03	-0.0247103	700.0
2619	7.01106e+02	2.61900e+03	-0.0247045	700.0
2620	7.01108e+02	2.62000e+03	-0.0246986	700.0
2621	7.01106e+02	2.62100e+03	-0.0246959	700.0
2622	7.01108e+02	2.62200e+03	-0.0246952	700.0
2623	7.01103e+02	2.62300e+03	-0.0246957	700.0
2624	7.01101e+02	2.62400e+03	-0.0247052	700.0
2625	7.01104e+02	2.62500e+03	-0.0247133	700.0
2626	7.01112e+02	2.62600e+03	-0.0247233	700.0
2627	7.01101e+02	2.62700e+03	-0.024735	700.0
2628	7.01105e+02	2.62800e+03	-0.0247546	700.0
2629	7.01106e+02	2.62900e+03	-0.0247718	700.0
2630	7.01107e+02	2.63000e+03	-0.0247884	700.0
2631	7.01097e+02	2.63100e+03	-0.0248049	700.0
2632	7.01106e+02	2.63200e+03	-0.0248211	700.0
2633	7.01103e+02	2.63300e+03	-0.0248335	700.0
2634	7.01103e+02	2.63400e+03	-0.0248421	700.0
2635	7.01109e+02	2.63500e+03	-0.0248465	700.0
2636	7.01103e+02	2.63600e+03	-0.0248334	700.0
2637	7.01101e+02	2.63700e+03	-0.0248224	700.0
2638	7.01096e+02	2.63800e+03	-0.0248095	700.0
2639	7.01092e+02	2.63900e+03	-0.0247946	700.0
2640	7.01098e+02	2.64000e+03	-0.0247636	700.0
2641	7.01101e+02	2.64100e+03	-0.0247399	700.0
2642	7.01109e+02	2.64200e+03	-0.0247173	700.0
2643	7.01091e+02	2.64300e+03	-0.0246946	700.0
2644	7.01097e+02	2.64400e+03	-0.0246732	700.0
2645	7.01105e+02	2.64500e+03	-0.0246538	700.0
2646	7.01100e+02	2.64600e+03	-0.0246356	700.0
2647	7.01093e+02	2.64700e+03	-0.0246168	700.0
2648	7.01099e+02	2.64800e+03	-0.0246014	700.0
2649	7.01095e+02	2.64900e+03	-0.0245873	700.0
2650	7.01091e+02	2.65000e+03	-0.0245766	700.0
2651	7.01093e+02	2.65100e+03	-0.0245684	700.0
2652	7.01096e+02	2.65200e+03	-0.0245685	700.0
2653	7.01095e+02	2.65300e+03	-0.0245691	700.0
2654	7.01092e+02	2.65400e+03	-0.0245711	700.0
2655	7.01096e+02	2.65500e+03	-0.024574	700.0
2656	7.01092e+02	2.65600e+03	-0.0245841	700.0
2657	7.01093e+02	2.65700e+03	-0.0245877	700.0
2658	7.01095e+02	2.65800e+03	-0.0245895	700.0
2659	7.01092e+02	2.65900e+03	-0.0245908	700.0
2660	7.01104e+02	2.66000e+03	-0.0245869	700.0
2661	7.01099e+02	2.66100e+03	-0.0245855	700.0
2662	7.01091e+02	2.66200e+03	-0.0245838	700.0
2663	7.01095e+02	2.66300e+03	-0.0245813	700.0
2664	7.01094e+02	2.66400e+03	-0.0245768	700.0
2665	7.01095e+02	2.66500e+03	-0.0245712	700.0
2666	7.01089e+02	2.66600e+03	-0.0245658	700.0
2667	7.01086e+02	2.66700e+03	-0.0245624	700.0
2668	7.01097e+02	2.66800e+03	-0.02456	700.0
2669	7.01082e+02	2.66900e+03	-0.0245588	700.0
2670	7.01084e+02	2.67000e+03	-0.0245576	700.0
2671	7.01079e+02	2.67100e+03	-0.0245561	700.0
2672	7.01073e+02	2.67200e+03	-0.0245609	700.0
2673	7.01075e+02	2.67300e+03	-0.0245629	700.0
2674	7.01084e+02	2.67400e+03	-0.0245657	700.0
2675	7.01076e+02	2.67500e+03	-0.0245695	700.0
2676	7.01078e+02	2.67600e+03	-0.0245771	700.0
2677	7.01079e+02	2.67700e+03	-0.0245871	700.0
2678	7.01071e+02	2.67800e+03	-0.0245991	700.0
2679	7.01075e+02	2.67900e+03	-0.0246124	700.0
2680	7.01069e+02	2.68000e+03	-0.0246341	700.0
2681	7.01066e+02	2.68100e+03	-0.0246514	700.0
2682	7.01069e+02	2.68200e+03	-0.0246675	700.0
2683	7.01070e+02	2.68300e+03	-0.0246833	700.0
2684	7.01061e+02	2.68400e+03	-0.0246953	700.0
2685	7.01059e+02	2.68500e+03	-0.0247029	700.0
2686	7.01068e+02	2.68600e+03	-0.0247047	700.0
2687	7.01071e+02	2.68700e+03	-0.0247036	700.0
2688	7.01070e+02	2.68800e+03	-0.0246915	700.0
2689	7.01063e+02	2.68900e+03	-0.0246841	700.0
2690	7.01062e+02	2.69000e+03	-0.0246773	700.0
2691	7.01063e+02	2.69100e+03	-0.0246706	700.0
2692	7.01063e+02	2.69200e+03	-0.0246618	700.0
2693	7.01064e+02	2.69300e+03	-0.0246559	700.0
2694	7.01060e+02	2.69400e+03	-0.0246512	700.0
2695	7.01065e+02	2.69500e+03	-0.0246468	700.0
2696	7.01064e+02	2.69600e+03	-0.0246453	700.0
2697	7.01061e+02	2.69700e+03	-0.0246411	700.0
2698	7.01051e+02	2.69800e+03	-0.0246358	700.0
2699	7.01056e+02	2.69900e+03	-0.0246299	700.0
2700	7.01058e+02	2.70000e+03	-0.0246202	700.0
2701	7.01067e+02	2.70100e+03	-0.0246111	700.0
2702	7.01056e+02	2.70200e+03	-0.024602	700.0
2703	7.01054e+02	2.70300e+03	-0.0245926	700.0
2704	7.01056e+02	2.70400e+03	-0.0245823	700.0
2705	7.01053e+02	2.70500e+03	-0.024574	700.0
2706	7.01052e+02	2.70600e+03	-0.0245672	700.0
2707	7.01056e+02	2.70700e+03	-0.0245613	700.0
2708	7.01054e+02	2.70800e+03	-0.024561	700.0
2709	7.01048e+02	2.70900e+03	-0.0245606	700.0
2710	7.01060e+02	2.71000e+03	-0.0245619	700.0
2711	7.01045e+02	2.71100e+03	-0.024565	700.0
2712	7.01046e+02	2.71200e+03	-0.0245701	700.0
2713	7.01052e+02	2.71300e+03	-0.0245772	700.0
2714	7.01056e+02	2.71400e+03	-0.0245859	700.0
2715	7.01048e+02	2.71500e+03	-0.0245974	700.0
2716	7.01053e+02	2.71600e+03	-0.0246123	700.0
2717	7.01056e+02	2.71700e+03	-0.0246272	700.0
2718	7.01047e+02	2.71800e+03	-0.0246412	700.0
2719	7.01044e+02	2.71900e+03	-0.024654	700.0
2720	7.01044e+02	2.72000e+03	-0.0246661	700.0
