Index	Ts	t	Weight	Tr
[#]	[°C]	[s]	[mg]	[°C]
681	1.30112e+02	6.81000e+02	2.99863	130.5
682	1.30626e+02	6.82000e+02	2.99862	131.0
683	1.31131e+02	6.83000e+02	2.9986	131.5
684	1.31634e+02	6.84000e+02	2.9986	132.0
685	1.32151e+02	6.85000e+02	2.9986	132.5
686	1.32685e+02	6.86000e+02	2.99859	133.0
687	1.33203e+02	6.87000e+02	2.99857	133.5
688	1.33700e+02	6.88000e+02	2.99856	134.0
689	1.34195e+02	6.89000e+02	2.99853	134.5
690	1.34707e+02	6.90000e+02	2.99851	135.0
691	1.35206e+02	6.91000e+02	2.99848	135.5
692	1.35716e+02	6.92000e+02	2.99843	136.0
693	1.36225e+02	6.93000e+02	2.99839	136.5
694	1.36730e+02	6.94000e+02	2.99833	137.0
695	1.37226e+02	6.95000e+02	2.99828	137.5
696	1.37735e+02	6.96000e+02	2.9982	138.0
697	1.38250e+02	6.97000e+02	2.99812	138.5
698	1.38748e+02	6.98000e+02	2.99804	139.0
699	1.39253e+02	6.99000e+02	2.99796	139.5
700	1.39756e+02	7.00000e+02	2.99785	140.0
701	1.40264e+02	7.01000e+02	2.99775	140.5
702	1.40766e+02	7.02000e+02	2.99766	141.0
703	1.41260e+02	7.03000e+02	2.99756	141.5
704	1.41767e+02	7.04000e+02	2.99746	142.0
705	1.42274e+02	7.05000e+02	2.99736	142.5
706	1.42777e+02	7.06000e+02	2.99726	143.0
707	1.43278e+02	7.07000e+02	2.99716	143.5
708	1.43797e+02	7.08000e+02	2.99705	144.0
709	1.44290e+02	7.09000e+02	2.99693	144.5
710	1.44802e+02	7.10000e+02	2.99681	145.0
711	1.45306e+02	7.11000e+02	2.99668	145.5
712	1.45798e+02	7.12000e+02	2.99653	146.0
713	1.46311e+02	7.13000e+02	2.99638	146.5
714	1.46823e+02	7.14000e+02	2.99623	147.0
715	1.47324e+02	7.15000e+02	2.99608	147.5
716	1.47828e+02	7.16000e+02	2.9959	148.0
717	1.48327e+02	7.17000e+02	2.99573	148.5
718	1.48829e+02	7.18000e+02	2.99556	149.0
719	1.49345e+02	7.19000e+02	2.99538	149.5
720	1.49846e+02	7.20000e+02	2.9952	150.0
721	1.50344e+02	7.21000e+02	2.99503	150.5
722	1.50847e+02	7.22000e+02	2.99486	151.0
723	1.51348e+02	7.23000e+02	2.99469	151.5
724	1.51848e+02	7.24000e+02	2.99452	152.0
725	1.52357e+02	7.25000e+02	2.99434	152.5
726	1.52868e+02	7.26000e+02	2.99416	153.0
727	1.53365e+02	7.27000e+02	2.99397	153.5
728	1.53867e+02	7.28000e+02	2.99375	154.0
729	1.54375e+02	7.29000e+02	2.99354	154.5
730	1.54884e+02	7.30000e+02	2.99332	155.0
731	1.55376e+02	7.31000e+02	2.99309	155.5
732	1.55869e+02	7.32000e+02	2.99285	156.0
733	1.56375e+02	7.33000e+02	2.99262	156.5
734	1.56882e+02	7.34000e+02	2.99239	157.0
735	1.57384e+02	7.35000e+02	2.99217	157.5
736	1.57883e+02	7.36000e+02	2.99194	158.0
737	1.58385e+02	7.37000e+02	2.99171	158.5
738	1.58894e+02	7.38000e+02	2.99148	159.0
739	1.59397e+02	7.39000e+02	2.99125	159.5
740	1.59899e+02	7.40000e+02	2.99102	160.0
741	1.60418e+02	7.41000e+02	2.99078	160.5
742	1.60916e+02	7.42000e+02	2.99055	161.0
743	1.61421e+02	7.43000e+02	2.9903	161.5
744	1.61925e+02	7.44000e+02	2.99004	162.0
745	1.62427e+02	7.45000e+02	2.98978	162.5
746	1.62931e+02	7.46000e+02	2.98951	163.0
747	1.63443e+02	7.47000e+02	2.98924	163.5
748	1.63936e+02	7.48000e+02	2.98893	164.0
749	1.64433e+02	7.49000e+02	2.98863	164.5
750	1.64942e+02	7.50000e+02	2.98832	165.0
751	1.65455e+02	7.51000e+02	2.988	165.5
752	1.65962e+02	7.52000e+02	2.98765	166.0
753	1.66461e+02	7.53000e+02	2.9873	166.5
754	1.66965e+02	7.54000e+02	2.98694	167.0
755	1.67477e+02	7.55000e+02	2.98658	167.5
756	1.67985e+02	7.56000e+02	2.98617	168.0
757	1.68495e+02	7.57000e+02	2.98578	168.5
758	1.68996e+02	7.58000e+02	2.98538	169.0
759	1.69507e+02	7.59000e+02	2.98498	169.5
760	1.70017e+02	7.60000e+02	2.98455	170.0
761	1.70526e+02	7.61000e+02	2.98411	170.5
762	1.71023e+02	7.62000e+02	2.98366	171.0
763	1.71542e+02	7.63000e+02	2.9832	171.5
764	1.72046e+02	7.64000e+02	2.98269	172.0
765	1.72551e+02	7.65000e+02	2.98217	172.5
766	1.73056e+02	7.66000e+02	2.98164	173.0
767	1.73571e+02	7.67000e+02	2.9811	173.5
768	1.74070e+02	7.68000e+02	2.98048	174.0
769	1.74584e+02	7.69000e+02	2.97989	174.5
770	1.75088e+02	7.70000e+02	2.97928	175.0
771	1.75603e+02	7.71000e+02	2.97866	175.5
772	1.76117e+02	7.72000e+02	2.97798	176.0
773	1.76612e+02	7.73000e+02	2.9773	176.5
774	1.77121e+02	7.74000e+02	2.9766	177.0
775	1.77629e+02	7.75000e+02	2.97588	177.5
776	1.78139e+02	7.76000e+02	2.97505	178.0
777	1.78651e+02	7.77000e+02	2.97423	178.5
778	1.79155e+02	7.78000e+02	2.97337	179.0
779	1.79667e+02	7.79000e+02	2.97249	179.5
780	1.80175e+02	7.80000e+02	2.97146	180.0
781	1.80690e+02	7.81000e+02	2.97046	180.5
782	1.81188e+02	7.82000e+02	2.96944	181.0
783	1.81692e+02	7.83000e+02	2.96839	181.5
784	1.82208e+02	7.84000e+02	2.96722	182.0
785	1.82717e+02	7.85000e+02	2.96607	182.5
786	1.83224e+02	7.86000e+02	2.9649	183.0
787	1.83731e+02	7.87000e+02	2.96371	183.5
788	1.84233e+02	7.88000e+02	2.96242	184.0
789	1.84744e+02	7.89000e+02	2.96115	184.5
790	1.85253e+02	7.90000e+02	2.95985	185.0
791	1.85755e+02	7.91000e+02	2.95854	185.5
792	1.86272e+02	7.92000e+02	2.95713	186.0
793	1.86773e+02	7.93000e+02	2.95574	186.5
794	1.87290e+02	7.94000e+02	2.95433	187.0
795	1.87794e+02	7.95000e+02	2.9529	187.5
796	1.88301e+02	7.96000e+02	2.95138	188.0
797	1.88819e+02	7.97000e+02	2.94988	188.5
798	1.89325e+02	7.98000e+02	2.94836	189.0
799	1.89832e+02	7.99000e+02	2.94682	189.5
800	1.90344e+02	8.00000e+02	2.9452	190.0
801	1.90846e+02	8.01000e+02	2.94359	190.5
802	1.91363e+02	8.02000e+02	2.94195	191.0
803	1.91866e+02	8.03000e+02	2.9403	191.5
804	1.92378e+02	8.04000e+02	2.93857	192.0
805	1.92893e+02	8.05000e+02	2.93686	192.5
806	1.93397e+02	8.06000e+02	2.93514	193.0
807	1.93910e+02	8.07000e+02	2.93342	193.5
808	1.94413e+02	8.08000e+02	2.93166	194.0
809	1.94932e+02	8.09000e+02	2.92992	194.5
810	1.95440e+02	8.10000e+02	2.92818	195.0
811	1.95952e+02	8.11000e+02	2.92644	195.5
812	1.96453e+02	8.12000e+02	2.92469	196.0
813	1.96974e+02	8.13000e+02	2.92295	196.5
814	1.97477e+02	8.14000e+02	2.92122	197.0
815	1.97980e+02	8.15000e+02	2.91949	197.5
816	1.98491e+02	8.16000e+02	2.91778	198.0
817	1.98996e+02	8.17000e+02	2.91608	198.5
818	1.99503e+02	8.18000e+02	2.91441	199.0
819	2.00021e+02	8.19000e+02	2.91275	199.5
820	2.00530e+02	8.20000e+02	2.91118	200.0
821	2.01040e+02	8.21000e+02	2.90961	200.5
822	2.01549e+02	8.22000e+02	2.90808	201.0
823	2.02058e+02	8.23000e+02	2.90657	201.5
824	2.02560e+02	8.24000e+02	2.90519	202.0
825	2.03072e+02	8.25000e+02	2.90379	202.5
826	2.03577e+02	8.26000e+02	2.90241	203.0
827	2.04109e+02	8.27000e+02	2.90106	203.5
828	2.04613e+02	8.28000e+02	2.89981	204.0
829	2.05122e+02	8.29000e+02	2.89856	204.5
830	2.05630e+02	8.30000e+02	2.89732	205.0
831	2.06137e+02	8.31000e+02	2.89611	205.5
832	2.06636e+02	8.32000e+02	2.895	206.0
833	2.07153e+02	8.33000e+02	2.89389	206.5
834	2.07661e+02	8.34000e+02	2.89281	207.0
835	2.08172e+02	8.35000e+02	2.89176	207.5
836	2.08682e+02	8.36000e+02	2.89085	208.0
837	2.09201e+02	8.37000e+02	2.88992	208.5
838	2.09713e+02	8.38000e+02	2.88902	209.0
839	2.10231e+02	8.39000e+02	2.88816	209.5
840	2.10740e+02	8.40000e+02	2.88744	210.0
841	2.11255e+02	8.41000e+02	2.88669	210.5
842	2.11774e+02	8.42000e+02	2.88596	211.0
843	2.12273e+02	8.43000e+02	2.88526	211.5
844	2.12782e+02	8.44000e+02	2.88466	212.0
845	2.13296e+02	8.45000e+02	2.88403	212.5
846	2.13809e+02	8.46000e+02	2.88343	213.0
847	2.14320e+02	8.47000e+02	2.88284	213.5
848	2.14829e+02	8.48000e+02	2.88234	214.0
849	2.15335e+02	8.49000e+02	2.88183	214.5
850	2.15824e+02	8.50000e+02	2.88133	215.0
851	2.16354e+02	8.51000e+02	2.88084	215.5
852	2.16865e+02	8.52000e+02	2.88042	216.0
853	2.17375e+02	8.53000e+02	2.87997	216.5
854	2.17882e+02	8.54000e+02	2.87953	217.0
855	2.18384e+02	8.55000e+02	2.8791	217.5
856	2.18889e+02	8.56000e+02	2.8787	218.0
857	2.19410e+02	8.57000e+02	2.8783	218.5
858	2.19923e+02	8.58000e+02	2.87791	219.0
859	2.20430e+02	8.59000e+02	2.87753	219.5
860	2.20920e+02	8.60000e+02	2.87717	220.0
861	2.21433e+02	8.61000e+02	2.87681	220.5
862	2.21937e+02	8.62000e+02	2.87645	221.0
863	2.22449e+02	8.63000e+02	2.87609	221.5
864	2.22951e+02	8.64000e+02	2.87574	222.0
865	2.23457e+02	8.65000e+02	2.87538	222.5
866	2.23965e+02	8.66000e+02	2.87503	223.0
867	2.24474e+02	8.67000e+02	2.87467	223.5
868	2.24973e+02	8.68000e+02	2.8743	224.0
869	2.25469e+02	8.69000e+02	2.87394	224.5
870	2.25982e+02	8.70000e+02	2.87357	225.0
871	2.26487e+02	8.71000e+02	2.87321	225.5
872	2.26982e+02	8.72000e+02	2.87285	226.0
873	2.27478e+02	8.73000e+02	2.87249	226.5
874	2.27984e+02	8.74000e+02	2.87214	227.0
875	2.28486e+02	8.75000e+02	2.87179	227.5
876	2.28973e+02	8.76000e+02	2.87145	228.0
877	2.29472e+02	8.77000e+02	2.87111	228.5
878	2.29966e+02	8.78000e+02	2.87078	229.0
879	2.30455e+02	8.79000e+02	2.87044	229.5
880	2.30956e+02	8.80000e+02	2.87011	230.0
881	2.31454e+02	8.81000e+02	2.86977	230.5
882	2.31948e+02	8.82000e+02	2.86943	231.0
883	2.32450e+02	8.83000e+02	2.86909	231.5
884	2.32953e+02	8.84000e+02	2.86873	232.0
885	2.33445e+02	8.85000e+02	2.86838	232.5
886	2.33954e+02	8.86000e+02	2.86802	233.0
887	2.34459e+02	8.87000e+02	2.86767	233.5
888	2.34963e+02	8.88000e+02	2.86731	234.0
889	2.35470e+02	8.89000e+02	2.86697	234.5
890	2.35980e+02	8.90000e+02	2.86663	235.0
891	2.36474e+02	8.91000e+02	2.86629	235.5
892	2.36986e+02	8.92000e+02	2.86597	236.0
893	2.37483e+02	8.93000e+02	2.86564	236.5
894	2.37987e+02	8.94000e+02	2.86532	237.0
895	2.38483e+02	8.95000e+02	2.86498	237.5
896	2.39004e+02	8.96000e+02	2.86464	238.0
897	2.39505e+02	8.97000e+02	2.8643	238.5
898	2.40013e+02	8.98000e+02	2.86395	239.0
899	2.40514e+02	8.99000e+02	2.86359	239.5
900	2.41015e+02	9.00000e+02	2.86321	240.0
901	2.41530e+02	9.01000e+02	2.86285	240.5
902	2.42030e+02	9.02000e+02	2.86249	241.0
903	2.42535e+02	9.03000e+02	2.86214	241.5
904	2.43037e+02	9.04000e+02	2.86179	242.0
905	2.43542e+02	9.05000e+02	2.86146	242.5
906	2.44029e+02	9.06000e+02	2.86113	243.0
907	2.44537e+02	9.07000e+02	2.8608	243.5
908	2.45047e+02	9.08000e+02	2.86051	244.0
909	2.45551e+02	9.09000e+02	2.86021	244.5
910	2.46048e+02	9.10000e+02	2.85992	245.0
911	2.46557e+02	9.11000e+02	2.85963	245.5
912	2.47063e+02	9.12000e+02	2.85935	246.0
913	2.47564e+02	9.13000e+02	2.85907	246.5
914	2.48071e+02	9.14000e+02	2.85879	247.0
915	2.48578e+02	9.15000e+02	2.85851	247.5
916	2.49064e+02	9.16000e+02	2.85823	248.0
917	2.49581e+02	9.17000e+02	2.85796	248.5
918	2.50095e+02	9.18000e+02	2.85769	249.0
919	2.50596e+02	9.19000e+02	2.85742	249.5
920	2.51137e+02	9.20000e+02	2.85717	250.0
921	2.51638e+02	9.21000e+02	2.85692	250.5
922	2.52134e+02	9.22000e+02	2.85666	251.0
923	2.52643e+02	9.23000e+02	2.85641	251.5
924	2.53168e+02	9.24000e+02	2.85617	252.0
925	2.53725e+02	9.25000e+02	2.85593	252.5
926	2.54268e+02	9.26000e+02	2.85569	253.0
927	2.54771e+02	9.27000e+02	2.85544	253.5
928	2.55269e+02	9.28000e+02	2.85521	254.0
929	2.55766e+02	9.29000e+02	2.85496	254.5
930	2.56273e+02	9.30000e+02	2.85472	255.0
931	2.56777e+02	9.31000e+02	2.85448	255.5
932	2.57307e+02	9.32000e+02	2.85422	256.0
933	2.57816e+02	9.33000e+02	2.85397	256.5
934	2.58360e+02	9.34000e+02	2.85371	257.0
935	2.58915e+02	9.35000e+02	2.85346	257.5
936	2.59448e+02	9.36000e+02	2.8532	258.0
937	2.59966e+02	9.37000e+02	2.85296	258.5
938	2.60478e+02	9.38000e+02	2.85272	259.0
939	2.60997e+02	9.39000e+02	2.85249	259.5
940	2.61505e+02	9.40000e+02	2.85228	260.0
941	2.62022e+02	9.41000e+02	2.85207	260.5
942	2.62558e+02	9.42000e+02	2.85186	261.0
943	2.63085e+02	9.43000e+02	2.85165	261.5
944	2.63621e+02	9.44000e+02	2.85146	262.0
945	2.64137e+02	9.45000e+02	2.85125	262.5
946	2.64681e+02	9.46000e+02	2.85104	263.0
947	2.65209e+02	9.47000e+02	2.85082	263.5
948	2.65717e+02	9.48000e+02	2.85059	264.0
949	2.66218e+02	9.49000e+02	2.85036	264.5
950	2.66717e+02	9.50000e+02	2.85011	265.0
951	2.67221e+02	9.51000e+02	2.84986	265.5
952	2.67715e+02	9.52000e+02	2.84958	266.0
953	2.68225e+02	9.53000e+02	2.84929	266.5
954	2.68728e+02	9.54000e+02	2.84899	267.0
955	2.69229e+02	9.55000e+02	2.84869	267.5
956	2.69732e+02	9.56000e+02	2.84835	268.0
957	2.70261e+02	9.57000e+02	2.84803	268.5
958	2.70767e+02	9.58000e+02	2.84772	269.0
959	2.71267e+02	9.59000e+02	2.8474	269.5
960	2.71771e+02	9.60000e+02	2.8471	270.0
961	2.72280e+02	9.61000e+02	2.8468	270.5
962	2.72796e+02	9.62000e+02	2.8465	271.0
963	2.73292e+02	9.63000e+02	2.8462	271.5
964	2.73791e+02	9.64000e+02	2.8459	272.0
965	2.74309e+02	9.65000e+02	2.8456	272.5
966	2.74820e+02	9.66000e+02	2.8453	273.0
967	2.75320e+02	9.67000e+02	2.84498	273.5
968	2.75810e+02	9.68000e+02	2.84466	274.0
969	2.76320e+02	9.69000e+02	2.84433	274.5
970	2.76837e+02	9.70000e+02	2.844	275.0
971	2.77336e+02	9.71000e+02	2.84366	275.5
972	2.77842e+02	9.72000e+02	2.8433	276.0
973	2.78346e+02	9.73000e+02	2.84294	276.5
974	2.78858e+02	9.74000e+02	2.84257	277.0
975	2.79357e+02	9.75000e+02	2.84219	277.5
976	2.79864e+02	9.76000e+02	2.84178	278.0
977	2.80362e+02	9.77000e+02	2.84137	278.5
978	2.80865e+02	9.78000e+02	2.84095	279.0
979	2.81397e+02	9.79000e+02	2.84053	279.5
980	2.81907e+02	9.80000e+02	2.84006	280.0
981	2.82439e+02	9.81000e+02	2.83959	280.5
982	2.82946e+02	9.82000e+02	2.83912	281.0
983	2.83458e+02	9.83000e+02	2.83863	281.5
984	2.83970e+02	9.84000e+02	2.83808	282.0
985	2.84480e+02	9.85000e+02	2.83755	282.5
986	2.84995e+02	9.86000e+02	2.837	283.0
987	2.85500e+02	9.87000e+02	2.83644	283.5
988	2.86039e+02	9.88000e+02	2.83584	284.0
989	2.86537e+02	9.89000e+02	2.83524	284.5
990	2.87043e+02	9.90000e+02	2.83462	285.0
991	2.87549e+02	9.91000e+02	2.834	285.5
992	2.88065e+02	9.92000e+02	2.83331	286.0
993	2.88612e+02	9.93000e+02	2.83263	286.5
994	2.89134e+02	9.94000e+02	2.83193	287.0
995	2.89627e+02	9.95000e+02	2.83121	287.5
996	2.90097e+02	9.96000e+02	2.83042	288.0
997	2.90582e+02	9.97000e+02	2.82963	288.5
998	2.91070e+02	9.98000e+02	2.82883	289.0
999	2.91556e+02	9.99000e+02	2.82801	289.5
1000	2.92030e+02	1.00000e+03	2.82711	290.0
1001	2.92541e+02	1.00100e+03	2.82622	290.5
1002	2.93064e+02	1.00200e+03	2.82531	291.0
1003	2.93579e+02	1.00300e+03	2.82438	291.5
1004	2.94083e+02	1.00400e+03	2.82336	292.0
1005	2.94603e+02	1.00500e+03	2.82236	292.5
1006	2.95112e+02	1.00600e+03	2.82132	293.0
1007	2.95626e+02	1.00700e+03	2.82027	293.5
1008	2.96149e+02	1.00800e+03	2.81912	294.0
1009	2.96664e+02	1.00900e+03	2.81798	294.5
1010	2.97191e+02	1.01000e+03	2.81682	295.0
1011	2.97706e+02	1.01100e+03	2.81563	295.5
1012	2.98257e+02	1.01200e+03	2.81433	296.0
1013	2.98786e+02	1.01300e+03	2.81305	296.5
1014	2.99296e+02	1.01400e+03	2.81176	297.0
1015	2.99812e+02	1.01500e+03	2.81044	297.5
1016	3.00325e+02	1.01600e+03	2.80901	298.0
1017	3.00837e+02	1.01700e+03	2.8076	298.5
1018	3.01345e+02	1.01800e+03	2.80616	299.0
1019	3.01896e+02	1.01900e+03	2.80469	299.5
1020	3.02384e+02	1.02000e+03	2.80311	300.0
1021	3.02868e+02	1.02100e+03	2.80154	300.5
1022	3.03406e+02	1.02200e+03	2.79994	301.0
1023	3.03926e+02	1.02300e+03	2.79832	301.5
1024	3.04429e+02	1.02400e+03	2.79659	302.0
1025	3.04927e+02	1.02500e+03	2.79488	302.5
1026	3.05418e+02	1.02600e+03	2.79315	303.0
1027	3.05918e+02	1.02700e+03	2.79141	303.5
1028	3.06464e+02	1.02800e+03	2.78959	304.0
1029	3.06994e+02	1.02900e+03	2.78778	304.5
1030	3.07456e+02	1.03000e+03	2.78595	305.0
1031	3.07950e+02	1.03100e+03	2.78411	305.5
1032	3.08447e+02	1.03200e+03	2.78219	306.0
1033	3.08940e+02	1.03300e+03	2.78029	306.5
1034	3.09452e+02	1.03400e+03	2.77837	307.0
1035	3.09963e+02	1.03500e+03	2.77644	307.5
1036	3.10471e+02	1.03600e+03	2.77444	308.0
1037	3.10991e+02	1.03700e+03	2.77245	308.5
1038	3.11512e+02	1.03800e+03	2.77044	309.0
1039	3.12050e+02	1.03900e+03	2.76842	309.5
1040	3.12582e+02	1.04000e+03	2.76632	310.0
1041	3.13131e+02	1.04100e+03	2.76424	310.5
1042	3.13666e+02	1.04200e+03	2.76215	311.0
1043	3.14255e+02	1.04300e+03	2.76005	311.5
1044	3.14747e+02	1.04400e+03	2.75789	312.0
1045	3.15246e+02	1.04500e+03	2.75575	312.5
1046	3.15754e+02	1.04600e+03	2.75361	313.0
1047	3.16243e+02	1.04700e+03	2.75146	313.5
1048	3.16776e+02	1.04800e+03	2.74929	314.0
1049	3.17308e+02	1.04900e+03	2.74714	314.5
1050	3.17781e+02	1.05000e+03	2.74499	315.0
1051	3.18276e+02	1.05100e+03	2.74284	315.5
1052	3.18767e+02	1.05200e+03	2.7407	316.0
1053	3.19242e+02	1.05300e+03	2.73854	316.5
1054	3.19710e+02	1.05400e+03	2.73637	317.0
1055	3.20217e+02	1.05500e+03	2.7342	317.5
1056	3.20720e+02	1.05600e+03	2.73201	318.0
1057	3.21197e+02	1.05700e+03	2.72983	318.5
1058	3.21725e+02	1.05800e+03	2.72764	319.0
1059	3.22236e+02	1.05900e+03	2.72545	319.5
1060	3.22747e+02	1.06000e+03	2.72323	320.0
1061	3.23252e+02	1.06100e+03	2.72101	320.5
1062	3.23754e+02	1.06200e+03	2.71878	321.0
1063	3.24244e+02	1.06300e+03	2.71654	321.5
1064	3.24807e+02	1.06400e+03	2.71425	322.0
1065	3.25293e+02	1.06500e+03	2.71196	322.5
1066	3.25811e+02	1.06600e+03	2.70965	323.0
1067	3.26329e+02	1.06700e+03	2.70732	323.5
1068	3.26818e+02	1.06800e+03	2.70491	324.0
1069	3.27347e+02	1.06900e+03	2.7025	324.5
1070	3.27899e+02	1.07000e+03	2.70006	325.0
1071	3.28367e+02	1.07100e+03	2.6976	325.5
1072	3.28827e+02	1.07200e+03	2.69502	326.0
1073	3.29302e+02	1.07300e+03	2.69246	326.5
1074	3.29818e+02	1.07400e+03	2.68986	327.0
1075	3.30329e+02	1.07500e+03	2.68724	327.5
1076	3.30824e+02	1.07600e+03	2.68448	328.0
1077	3.31310e+02	1.07700e+03	2.68172	328.5
1078	3.31841e+02	1.07800e+03	2.67892	329.0
1079	3.32351e+02	1.07900e+03	2.67608	329.5
1080	3.32856e+02	1.08000e+03	2.67302	330.0
1081	3.33367e+02	1.08100e+03	2.66995	330.5
1082	3.33875e+02	1.08200e+03	2.6668	331.0
1083	3.34375e+02	1.08300e+03	2.66358	331.5
1084	3.34884e+02	1.08400e+03	2.66003	332.0
1085	3.35392e+02	1.08500e+03	2.65651	332.5
1086	3.35907e+02	1.08600e+03	2.65291	333.0
1087	3.36412e+02	1.08700e+03	2.64924	333.5
1088	3.36920e+02	1.08800e+03	2.64519	334.0
1089	3.37434e+02	1.08900e+03	2.64121	334.5
1090	3.37964e+02	1.09000e+03	2.63715	335.0
1091	3.38451e+02	1.09100e+03	2.63303	335.5
1092	3.38969e+02	1.09200e+03	2.62854	336.0
1093	3.39482e+02	1.09300e+03	2.62409	336.5
1094	3.40000e+02	1.09400e+03	2.61955	337.0
1095	3.40522e+02	1.09500e+03	2.61492	337.5
1096	3.41021e+02	1.09600e+03	2.60989	338.0
1097	3.41542e+02	1.09700e+03	2.60488	338.5
1098	3.42055e+02	1.09800e+03	2.59976	339.0
1099	3.42613e+02	1.09900e+03	2.59456	339.5
1100	3.43180e+02	1.10000e+03	2.58886	340.0
1101	3.43681e+02	1.10100e+03	2.58321	340.5
1102	3.44196e+02	1.10200e+03	2.57744	341.0
1103	3.44730e+02	1.10300e+03	2.57157	341.5
1104	3.45245e+02	1.10400e+03	2.56514	342.0
1105	3.45749e+02	1.10500e+03	2.55877	342.5
1106	3.46213e+02	1.10600e+03	2.55225	343.0
1107	3.46693e+02	1.10700e+03	2.54562	343.5
1108	3.47172e+02	1.10800e+03	2.53836	344.0
1109	3.47659e+02	1.10900e+03	2.53117	344.5
1110	3.48159e+02	1.11000e+03	2.52384	345.0
1111	3.48649e+02	1.11100e+03	2.51639	345.5
1112	3.49172e+02	1.11200e+03	2.50827	346.0
1113	3.49683e+02	1.11300e+03	2.50024	346.5
1114	3.50196e+02	1.11400e+03	2.49206	347.0
1115	3.50680e+02	1.11500e+03	2.48374	347.5
1116	3.51206e+02	1.11600e+03	2.47473	348.0
1117	3.51708e+02	1.11700e+03	2.46579	348.5
1118	3.52226e+02	1.11800e+03	2.45669	349.0
1119	3.52722e+02	1.11900e+03	2.44744	349.5
1120	3.53243e+02	1.12000e+03	2.43743	350.0
1121	3.53733e+02	1.12100e+03	2.42751	350.5
1122	3.54216e+02	1.12200e+03	2.41741	351.0
1123	3.54711e+02	1.12300e+03	2.40714	351.5
1124	3.55222e+02	1.12400e+03	2.39606	352.0
1125	3.55723e+02	1.12500e+03	2.38508	352.5
1126	3.56193e+02	1.12600e+03	2.37392	353.0
1127	3.56680e+02	1.12700e+03	2.3626	353.5
1128	3.57205e+02	1.12800e+03	2.35044	354.0
1129	3.57681e+02	1.12900e+03	2.3384	354.5
1130	3.58160e+02	1.13000e+03	2.32619	355.0
1131	3.58648e+02	1.13100e+03	2.31382	355.5
1132	3.59130e+02	1.13200e+03	2.30061	356.0
1133	3.59602e+02	1.13300e+03	2.28751	356.5
1134	3.60078e+02	1.13400e+03	2.27424	357.0
1135	3.60586e+02	1.13500e+03	2.26081	357.5
1136	3.61070e+02	1.13600e+03	2.24654	358.0
1137	3.61558e+02	1.13700e+03	2.2324	358.5
1138	3.62034e+02	1.13800e+03	2.2181	359.0
1139	3.62523e+02	1.13900e+03	2.20365	359.5
1140	3.62985e+02	1.14000e+03	2.1884	360.0
1141	3.63476e+02	1.14100e+03	2.17326	360.5
1142	3.63969e+02	1.14200e+03	2.15795	361.0
1143	3.64455e+02	1.14300e+03	2.14249	361.5
1144	3.64945e+02	1.14400e+03	2.12625	362.0
1145	3.65428e+02	1.14500e+03	2.11013	362.5
1146	3.65919e+02	1.14600e+03	2.09385	363.0
1147	3.66402e+02	1.14700e+03	2.07743	363.5
1148	3.66888e+02	1.14800e+03	2.06027	364.0
1149	3.67377e+02	1.14900e+03	2.04322	364.5
1150	3.67874e+02	1.15000e+03	2.02603	365.0
1151	3.68366e+02	1.15100e+03	2.0087	365.5
1152	3.68854e+02	1.15200e+03	1.9907	366.0
1153	3.69352e+02	1.15300e+03	1.97281	366.5
1154	3.69855e+02	1.15400e+03	1.95479	367.0
1155	3.70344e+02	1.15500e+03	1.93664	367.5
1156	3.70841e+02	1.15600e+03	1.91785	368.0
1157	3.71320e+02	1.15700e+03	1.89912	368.5
1158	3.71824e+02	1.15800e+03	1.88025	369.0
1159	3.72316e+02	1.15900e+03	1.86124	369.5
1160	3.72811e+02	1.16000e+03	1.84155	370.0
1161	3.73274e+02	1.16100e+03	1.82195	370.5
1162	3.73767e+02	1.16200e+03	1.80222	371.0
1163	3.74284e+02	1.16300e+03	1.78236	371.5
1164	3.74790e+02	1.16400e+03	1.76185	372.0
1165	3.75293e+02	1.16500e+03	1.74145	372.5
1166	3.75791e+02	1.16600e+03	1.72093	373.0
1167	3.76281e+02	1.16700e+03	1.7003	373.5
1168	3.76789e+02	1.16800e+03	1.67911	374.0
1169	3.77295e+02	1.16900e+03	1.65802	374.5
1170	3.77781e+02	1.17000e+03	1.63684	375.0
1171	3.78270e+02	1.17100e+03	1.61558	375.5
1172	3.78760e+02	1.17200e+03	1.59384	376.0
1173	3.79253e+02	1.17300e+03	1.57217	376.5
1174	3.79761e+02	1.17400e+03	1.55041	377.0
1175	3.80258e+02	1.17500e+03	1.52854	377.5
1176	3.80758e+02	1.17600e+03	1.5062	378.0
1177	3.81248e+02	1.17700e+03	1.48391	378.5
1178	3.81762e+02	1.17800e+03	1.46154	379.0
1179	3.82259e+02	1.17900e+03	1.43909	379.5
1180	3.82768e+02	1.18000e+03	1.41618	380.0
1181	3.83278e+02	1.18100e+03	1.3934	380.5
1182	3.83776e+02	1.18200e+03	1.37057	381.0
1183	3.84260e+02	1.18300e+03	1.3477	381.5
1184	3.84734e+02	1.18400e+03	1.32458	382.0
1185	3.85238e+02	1.18500e+03	1.30157	382.5
1186	3.85733e+02	1.18600e+03	1.27859	383.0
1187	3.86228e+02	1.18700e+03	1.25562	383.5
1188	3.86725e+02	1.18800e+03	1.23268	384.0
1189	3.87222e+02	1.18900e+03	1.2098	384.5
1190	3.87721e+02	1.19000e+03	1.18699	385.0
1191	3.88202e+02	1.19100e+03	1.16423	385.5
1192	3.88669e+02	1.19200e+03	1.1417	386.0
1193	3.89155e+02	1.19300e+03	1.11913	386.5
1194	3.89634e+02	1.19400e+03	1.09662	387.0
1195	3.90130e+02	1.19500e+03	1.07415	387.5
1196	3.90602e+02	1.19600e+03	1.0519	388.0
1197	3.91078e+02	1.19700e+03	1.02961	388.5
1198	3.91568e+02	1.19800e+03	1.00736	389.0
1199	3.92054e+02	1.19900e+03	0.985158	389.5
1200	3.92547e+02	1.20000e+03	0.963175	390.0
1201	3.93036e+02	1.20100e+03	0.941171	390.5
1202	3.93524e+02	1.20200e+03	0.919228	391.0
1203	3.94025e+02	1.20300e+03	0.897343	391.5
1204	3.94517e+02	1.20400e+03	0.875764	392.0
1205	3.95017e+02	1.20500e+03	0.854188	392.5
1206	3.95516e+02	1.20600e+03	0.83272	393.0
1207	3.95998e+02	1.20700e+03	0.81134	393.5
1208	3.96492e+02	1.20800e+03	0.790422	394.0
1209	3.96996e+02	1.20900e+03	0.769483	394.5
1210	3.97493e+02	1.21000e+03	0.748683	395.0
1211	3.97998e+02	1.21100e+03	0.728009	395.5
1212	3.98491e+02	1.21200e+03	0.707973	396.0
1213	3.98989e+02	1.21300e+03	0.687923	396.5
1214	3.99486e+02	1.21400e+03	0.668072	397.0
1215	3.99981e+02	1.21500e+03	0.648396	397.5
1216	4.00495e+02	1.21600e+03	0.629589	398.0
1217	4.01006e+02	1.21700e+03	0.610714	398.5
1218	4.01507e+02	1.21800e+03	0.59206	399.0
1219	4.02014e+02	1.21900e+03	0.573603	399.5
1220	4.02516e+02	1.22000e+03	0.556191	400.0
1221	4.03027e+02	1.22100e+03	0.538675	400.5
1222	4.03527e+02	1.22200e+03	0.521414	401.0
1223	4.04026e+02	1.22300e+03	0.50438	401.5
1224	4.04530e+02	1.22400e+03	0.488506	402.0
1225	4.05035e+02	1.22500e+03	0.472498	402.5
1226	4.05542e+02	1.22600e+03	0.456747	403.0
1227	4.06056e+02	1.22700e+03	0.441228	403.5
1228	4.06555e+02	1.22800e+03	0.426919	404.0
1229	4.07064e+02	1.22900e+03	0.412449	404.5
1230	4.07567e+02	1.23000e+03	0.398237	405.0
1231	4.08082e+02	1.23100e+03	0.384264	405.5
1232	4.08590e+02	1.23200e+03	0.371498	406.0
1233	4.09092e+02	1.23300e+03	0.35858	406.5
1234	4.09581e+02	1.23400e+03	0.345915	407.0
1235	4.10085e+02	1.23500e+03	0.333482	407.5
1236	4.10599e+02	1.23600e+03	0.322245	408.0
1237	4.11108e+02	1.23700e+03	0.310823	408.5
1238	4.11604e+02	1.23800e+03	0.299633	409.0
1239	4.12108e+02	1.23900e+03	0.288661	409.5
1240	4.12609e+02	1.24000e+03	0.278804	410.0
1241	4.13114e+02	1.24100e+03	0.268783	410.5
1242	4.13609e+02	1.24200e+03	0.25898	411.0
1243	4.14121e+02	1.24300e+03	0.249381	411.5
1244	4.14635e+02	1.24400e+03	0.240822	412.0
1245	4.15127e+02	1.24500e+03	0.232095	412.5
1246	4.15629e+02	1.24600e+03	0.223563	413.0
1247	4.16135e+02	1.24700e+03	0.215217	413.5
1248	4.16661e+02	1.24800e+03	0.207823	414.0
1249	4.17169e+02	1.24900e+03	0.200289	414.5
1250	4.17704e+02	1.25000e+03	0.192942	415.0
1251	4.18248e+02	1.25100e+03	0.185769	415.5
1252	4.18779e+02	1.25200e+03	0.179499	416.0
1253	4.19301e+02	1.25300e+03	0.173095	416.5
1254	4.19809e+02	1.25400e+03	0.166864	417.0
1255	4.20320e+02	1.25500e+03	0.160794	417.5
1256	4.20849e+02	1.25600e+03	0.155564	418.0
1257	4.21368e+02	1.25700e+03	0.150199	418.5
1258	4.21918e+02	1.25800e+03	0.144987	419.0
1259	4.22441e+02	1.25900e+03	0.139922	419.5
1260	4.23013e+02	1.26000e+03	0.135605	420.0
1261	4.23594e+02	1.26100e+03	0.131163	420.5
1262	4.24225e+02	1.26200e+03	0.126854	421.0
1263	4.24885e+02	1.26300e+03	0.122671	421.5
1264	4.25409e+02	1.26400e+03	0.119144	422.0
1265	4.25877e+02	1.26500e+03	0.115506	422.5
1266	4.26474e+02	1.26600e+03	0.111986	423.0
1267	4.26955e+02	1.26700e+03	0.108578	423.5
1268	4.27471e+02	1.26800e+03	0.105747	424.0
1269	4.28044e+02	1.26900e+03	0.102824	424.5
1270	4.28510e+02	1.27000e+03	0.100006	425.0
1271	4.28989e+02	1.27100e+03	0.0972859	425.5
1272	4.29450e+02	1.27200e+03	0.0950731	426.0
1273	4.29916e+02	1.27300e+03	0.0927669	426.5
1274	4.30427e+02	1.27400e+03	0.0905409	427.0
1275	4.30954e+02	1.27500e+03	0.0883941	427.5
1276	4.31439e+02	1.27600e+03	0.0866604	428.0
1277	4.31940e+02	1.27700e+03	0.0848503	428.5
1278	4.32464e+02	1.27800e+03	0.0831064	429.0
1279	4.32986e+02	1.27900e+03	0.0814272	429.5
1280	4.33500e+02	1.28000e+03	0.0800817	430.0
1281	4.33996e+02	1.28100e+03	0.0786734	430.5
1282	4.34472e+02	1.28200e+03	0.0773145	431.0
1283	4.34952e+02	1.28300e+03	0.0760048	431.5
1284	4.35452e+02	1.28400e+03	0.0749548	432.0
1285	4.35922e+02	1.28500e+03	0.0738495	432.5
1286	4.36390e+02	1.28600e+03	0.0727814	433.0
1287	4.36855e+02	1.28700e+03	0.0717519	433.5
1288	4.37332e+02	1.28800e+03	0.0709189	434.0
1289	4.37823e+02	1.28900e+03	0.070053	434.5
1290	4.38288e+02	1.29000e+03	0.0692201	435.0
1291	4.38708e+02	1.29100e+03	0.0684186	435.5
1292	4.39154e+02	1.29200e+03	0.0677816	436.0
1293	4.39659e+02	1.29300e+03	0.0671091	436.5
1294	4.40156e+02	1.29400e+03	0.0664579	437.0
1295	4.40620e+02	1.29500e+03	0.065829	437.5
1296	4.41101e+02	1.29600e+03	0.065317	438.0
1297	4.41606e+02	1.29700e+03	0.0647801	438.5
1298	4.42103e+02	1.29800e+03	0.0642612	439.0
1299	4.42608e+02	1.29900e+03	0.0637609	439.5
1300	4.43128e+02	1.30000e+03	0.0633507	440.0
1301	4.43662e+02	1.30100e+03	0.0629295	440.5
1302	4.44178e+02	1.30200e+03	0.0625279	441.0
1303	4.44645e+02	1.30300e+03	0.0621435	441.5
1304	4.45137e+02	1.30400e+03	0.061847	442.0
1305	4.45663e+02	1.30500e+03	0.0615355	442.5
1306	4.46163e+02	1.30600e+03	0.0612403	443.0
1307	4.46661e+02	1.30700e+03	0.0609608	443.5
1308	4.47155e+02	1.30800e+03	0.0607629	444.0
1309	4.47613e+02	1.30900e+03	0.0605516	444.5
1310	4.48181e+02	1.31000e+03	0.0603496	445.0
1311	4.48660e+02	1.31100e+03	0.0601557	445.5
1312	4.49108e+02	1.31200e+03	0.0600169	446.0
1313	4.49572e+02	1.31300e+03	0.0598565	446.5
1314	4.50114e+02	1.31400e+03	0.0596961	447.0
1315	4.50609e+02	1.31500e+03	0.0595385	447.5
1316	4.51081e+02	1.31600e+03	0.0593955	448.0
1317	4.51643e+02	1.31700e+03	0.0592528	448.5
1318	4.52118e+02	1.31800e+03	0.0591139	449.0
1319	4.52690e+02	1.31900e+03	0.0589772	449.5
1320	4.53205e+02	1.32000e+03	0.0588574	450.0
1321	4.53704e+02	1.32100e+03	0.0587348	450.5
1322	4.54234e+02	1.32200e+03	0.0586142	451.0
1323	4.54593e+02	1.32300e+03	0.0584964	451.5
1324	4.55050e+02	1.32400e+03	0.0583928	452.0
1325	4.55854e+02	1.32500e+03	0.0582873	452.5
1326	4.56307e+02	1.32600e+03	0.0581868	453.0
1327	4.56775e+02	1.32700e+03	0.0580911	453.5
1328	4.57248e+02	1.32800e+03	0.0580211	454.0
1329	4.57729e+02	1.32900e+03	0.0579562	454.5
1330	4.58180e+02	1.33000e+03	0.0579027	455.0
1331	4.58632e+02	1.33100e+03	0.0578579	455.5
1332	4.59078e+02	1.33200e+03	0.0578569	456.0
1333	4.59547e+02	1.33300e+03	0.057846	456.5
1334	4.59994e+02	1.33400e+03	0.0578382	457.0
1335	4.60440e+02	1.33500e+03	0.0578339	457.5
1336	4.60904e+02	1.33600e+03	0.0578495	458.0
1337	4.61387e+02	1.33700e+03	0.0578497	458.5
1338	4.61865e+02	1.33800e+03	0.0578434	459.0
1339	4.62331e+02	1.33900e+03	0.057834	459.5
1340	4.62813e+02	1.34000e+03	0.0578047	460.0
1341	4.63296e+02	1.34100e+03	0.057775	460.5
1342	4.63790e+02	1.34200e+03	0.0577423	461.0
1343	4.64266e+02	1.34300e+03	0.057708	461.5
1344	4.64743e+02	1.34400e+03	0.0576574	462.0
1345	4.65221e+02	1.34500e+03	0.0576186	462.5
1346	4.65685e+02	1.34600e+03	0.0575847	463.0
1347	4.66161e+02	1.34700e+03	0.0575534	463.5
1348	4.66643e+02	1.34800e+03	0.0575366	464.0
1349	4.67132e+02	1.34900e+03	0.0575184	464.5
1350	4.67614e+02	1.35000e+03	0.0575031	465.0
1351	4.68094e+02	1.35100e+03	0.0574905	465.5
1352	4.68557e+02	1.35200e+03	0.0574874	466.0
1353	4.69040e+02	1.35300e+03	0.0574761	466.5
1354	4.69521e+02	1.35400e+03	0.0574608	467.0
1355	4.70001e+02	1.35500e+03	0.0574433	467.5
1356	4.70478e+02	1.35600e+03	0.0574134	468.0
1357	4.70960e+02	1.35700e+03	0.0573836	468.5
1358	4.71450e+02	1.35800e+03	0.0573517	469.0
1359	4.71927e+02	1.35900e+03	0.0573183	469.5
1360	4.72407e+02	1.36000e+03	0.0572812	470.0
1361	4.72879e+02	1.36100e+03	0.057256	470.5
1362	4.73353e+02	1.36200e+03	0.0572398	471.0
1363	4.73848e+02	1.36300e+03	0.0572291	471.5
1364	4.74325e+02	1.36400e+03	0.0572467	472.0
1365	4.74800e+02	1.36500e+03	0.0572607	472.5
1366	4.75273e+02	1.36600e+03	0.057278	473.0
1367	4.75764e+02	1.36700e+03	0.0572984	473.5
1368	4.76239e+02	1.36800e+03	0.0573366	474.0
1369	4.76724e+02	1.36900e+03	0.0573623	474.5
1370	4.77187e+02	1.37000e+03	0.057384	475.0
1371	4.77676e+02	1.37100e+03	0.0574036	475.5
1372	4.78172e+02	1.37200e+03	0.0574074	476.0
1373	4.78683e+02	1.37300e+03	0.057409	476.5
1374	4.79170e+02	1.37400e+03	0.0574051	477.0
1375	4.79638e+02	1.37500e+03	0.057397	477.5
1376	4.80114e+02	1.37600e+03	0.0573669	478.0
1377	4.80599e+02	1.37700e+03	0.0573451	478.5
1378	4.81074e+02	1.37800e+03	0.0573265	479.0
1379	4.81490e+02	1.37900e+03	0.0573101	479.5
1380	4.81973e+02	1.38000e+03	0.0572987	480.0
1381	4.82483e+02	1.38100e+03	0.0572952	480.5
1382	4.82960e+02	1.38200e+03	0.0572966	481.0
1383	4.83455e+02	1.38300e+03	0.0573004	481.5
1384	4.83900e+02	1.38400e+03	0.0573211	482.0
1385	4.84398e+02	1.38500e+03	0.0573278	482.5
1386	4.84886e+02	1.38600e+03	0.0573286	483.0
1387	4.85347e+02	1.38700e+03	0.0573265	483.5
1388	4.85787e+02	1.38800e+03	0.0573051	484.0
1389	4.86236e+02	1.38900e+03	0.0572836	484.5
1390	4.86666e+02	1.39000e+03	0.0572581	485.0
1391	4.87130e+02	1.39100e+03	0.0572293	485.5
1392	4.87602e+02	1.39200e+03	0.0571815	486.0
1393	4.88082e+02	1.39300e+03	0.0571436	486.5
1394	4.88556e+02	1.39400e+03	0.0571077	487.0
1395	4.89041e+02	1.39500e+03	0.0570719	487.5
1396	4.89530e+02	1.39600e+03	0.057038	488.0
1397	4.90013e+02	1.39700e+03	0.0570044	488.5
1398	4.90503e+02	1.39800e+03	0.0569704	489.0
1399	4.90991e+02	1.39900e+03	0.0569361	489.5
1400	4.91480e+02	1.40000e+03	0.056906	490.0
1401	4.91989e+02	1.40100e+03	0.0568771	490.5
1402	4.92472e+02	1.40200e+03	0.0568518	491.0
1403	4.92960e+02	1.40300e+03	0.0568292	491.5
1404	4.93456e+02	1.40400e+03	0.0568154	492.0
1405	4.93958e+02	1.40500e+03	0.0568008	492.5
1406	4.94442e+02	1.40600e+03	0.0567866	493.0
1407	4.94930e+02	1.40700e+03	0.0567725	493.5
1408	4.95427e+02	1.40800e+03	0.0567661	494.0
1409	4.95908e+02	1.40900e+03	0.056756	494.5
1410	4.96408e+02	1.41000e+03	0.0567465	495.0
1411	4.96897e+02	1.41100e+03	0.0567382	495.5
1412	4.97387e+02	1.41200e+03	0.0567329	496.0
1413	4.97883e+02	1.41300e+03	0.0567298	496.5
1414	4.98368e+02	1.41400e+03	0.0567273	497.0
1415	4.98870e+02	1.41500e+03	0.0567249	497.5
1416	4.99377e+02	1.41600e+03	0.0567307	498.0
1417	4.99880e+02	1.41700e+03	0.0567329	498.5
1418	5.00390e+02	1.41800e+03	0.0567341	499.0
1419	5.00907e+02	1.41900e+03	0.056735	499.5
1420	5.01416e+02	1.42000e+03	0.0567348	500.0
1421	5.01923e+02	1.42100e+03	0.0567345	500.5
1422	5.02428e+02	1.42200e+03	0.0567323	501.0
1423	5.02953e+02	1.42300e+03	0.0567283	501.5
1424	5.03495e+02	1.42400e+03	0.0567163	502.0
1425	5.04003e+02	1.42500e+03	0.0567029	502.5
1426	5.04488e+02	1.42600e+03	0.0566869	503.0
1427	5.04985e+02	1.42700e+03	0.0566689	503.5
1428	5.05520e+02	1.42800e+03	0.0566394	504.0
1429	5.06034e+02	1.42900e+03	0.056617	504.5
1430	5.06560e+02	1.43000e+03	0.0565971	505.0
1431	5.07107e+02	1.43100e+03	0.0565782	505.5
1432	5.07640e+02	1.43200e+03	0.0565636	506.0
1433	5.08189e+02	1.43300e+03	0.056551	506.5
1434	5.08744e+02	1.43400e+03	0.0565408	507.0
1435	5.09276e+02	1.43500e+03	0.056532	507.5
1436	5.09805e+02	1.43600e+03	0.0565342	508.0
1437	5.10286e+02	1.43700e+03	0.0565349	508.5
1438	5.10783e+02	1.43800e+03	0.0565374	509.0
1439	5.11265e+02	1.43900e+03	0.0565413	509.5
1440	5.11739e+02	1.44000e+03	0.0565536	510.0
1441	5.12230e+02	1.44100e+03	0.0565624	510.5
1442	5.12732e+02	1.44200e+03	0.0565691	511.0
1443	5.13257e+02	1.44300e+03	0.0565744	511.5
1444	5.13762e+02	1.44400e+03	0.0565741	512.0
1445	5.14274e+02	1.44500e+03	0.0565691	512.5
1446	5.14816e+02	1.44600e+03	0.0565607	513.0
1447	5.15339e+02	1.44700e+03	0.0565503	513.5
1448	5.15826e+02	1.44800e+03	0.056524	514.0
1449	5.16309e+02	1.44900e+03	0.0565056	514.5
1450	5.16819e+02	1.45000e+03	0.0564891	515.0
1451	5.17326e+02	1.45100e+03	0.056473	515.5
1452	5.17844e+02	1.45200e+03	0.0564603	516.0
1453	5.18334e+02	1.45300e+03	0.0564509	516.5
1454	5.18829e+02	1.45400e+03	0.056445	517.0
1455	5.19356e+02	1.45500e+03	0.0564411	517.5
1456	5.19888e+02	1.45600e+03	0.0564502	518.0
1457	5.20424e+02	1.45700e+03	0.0564547	518.5
1458	5.20910e+02	1.45800e+03	0.0564581	519.0
1459	5.21429e+02	1.45900e+03	0.0564613	519.5
1460	5.21951e+02	1.46000e+03	0.056465	520.0
1461	5.22456e+02	1.46100e+03	0.0564639	520.5
1462	5.23022e+02	1.46200e+03	0.0564602	521.0
1463	5.23551e+02	1.46300e+03	0.0564548	521.5
1464	5.24018e+02	1.46400e+03	0.0564403	522.0
1465	5.24520e+02	1.46500e+03	0.0564302	522.5
1466	5.24959e+02	1.46600e+03	0.0564216	523.0
1467	5.25415e+02	1.46700e+03	0.0564137	523.5
1468	5.25850e+02	1.46800e+03	0.0564088	524.0
1469	5.26313e+02	1.46900e+03	0.0564056	524.5
1470	5.26758e+02	1.47000e+03	0.056403	525.0
1471	5.27194e+02	1.47100e+03	0.056401	525.5
1472	5.27626e+02	1.47200e+03	0.0564061	526.0
1473	5.28075e+02	1.47300e+03	0.0564085	526.5
1474	5.28536e+02	1.47400e+03	0.0564106	527.0
1475	5.29023e+02	1.47500e+03	0.0564124	527.5
1476	5.29474e+02	1.47600e+03	0.0564127	528.0
1477	5.29973e+02	1.47700e+03	0.0564105	528.5
1478	5.30439e+02	1.47800e+03	0.0564052	529.0
1479	5.30924e+02	1.47900e+03	0.0563982	529.5
1480	5.31407e+02	1.48000e+03	0.0563838	530.0
1481	5.31859e+02	1.48100e+03	0.056372	530.5
1482	5.32309e+02	1.48200e+03	0.0563603	531.0
1483	5.32767e+02	1.48300e+03	0.0563481	531.5
1484	5.33216e+02	1.48400e+03	0.056332	532.0
1485	5.33693e+02	1.48500e+03	0.0563177	532.5
1486	5.34163e+02	1.48600e+03	0.056304	533.0
1487	5.34645e+02	1.48700e+03	0.0562906	533.5
1488	5.35140e+02	1.48800e+03	0.0562797	534.0
1489	5.35614e+02	1.48900e+03	0.0562707	534.5
1490	5.36106e+02	1.49000e+03	0.0562644	535.0
1491	5.36594e+02	1.49100e+03	0.05626	535.5
1492	5.37083e+02	1.49200e+03	0.0562641	536.0
1493	5.37577e+02	1.49300e+03	0.0562678	536.5
1494	5.38067e+02	1.49400e+03	0.0562732	537.0
1495	5.38549e+02	1.49500e+03	0.0562797	537.5
1496	5.39028e+02	1.49600e+03	0.0562949	538.0
1497	5.39507e+02	1.49700e+03	0.0563075	538.5
1498	5.39988e+02	1.49800e+03	0.0563209	539.0
1499	5.40472e+02	1.49900e+03	0.0563353	539.5
1500	5.40936e+02	1.50000e+03	0.0563514	540.0
1501	5.41406e+02	1.50100e+03	0.0563641	540.5
1502	5.41886e+02	1.50200e+03	0.0563736	541.0
1503	5.42366e+02	1.50300e+03	0.0563808	541.5
1504	5.42855e+02	1.50400e+03	0.0563794	542.0
1505	5.43343e+02	1.50500e+03	0.0563781	542.5
1506	5.43843e+02	1.50600e+03	0.0563752	543.0
1507	5.44349e+02	1.50700e+03	0.0563711	543.5
1508	5.44828e+02	1.50800e+03	0.0563577	544.0
1509	5.45328e+02	1.50900e+03	0.0563494	544.5
1510	5.45817e+02	1.51000e+03	0.0563419	545.0
1511	5.46300e+02	1.51100e+03	0.0563348	545.5
1512	5.46787e+02	1.51200e+03	0.0563307	546.0
1513	5.47292e+02	1.51300e+03	0.0563282	546.5
1514	5.47786e+02	1.51400e+03	0.0563282	547.0
1515	5.48297e+02	1.51500e+03	0.0563299	547.5
1516	5.48788e+02	1.51600e+03	0.0563408	548.0
1517	5.49252e+02	1.51700e+03	0.056349	548.5
1518	5.49725e+02	1.51800e+03	0.0563553	549.0
1519	5.50243e+02	1.51900e+03	0.0563602	549.5
1520	5.50744e+02	1.52000e+03	0.0563645	550.0
1521	5.51244e+02	1.52100e+03	0.0563632	550.5
1522	5.51748e+02	1.52200e+03	0.0563566	551.0
1523	5.52256e+02	1.52300e+03	0.0563468	551.5
1524	5.52743e+02	1.52400e+03	0.0563225	552.0
1525	5.53196e+02	1.52500e+03	0.0563035	552.5
1526	5.53671e+02	1.52600e+03	0.0562845	553.0
1527	5.54159e+02	1.52700e+03	0.0562652	553.5
1528	5.54641e+02	1.52800e+03	0.0562438	554.0
1529	5.55100e+02	1.52900e+03	0.0562265	554.5
1530	5.55564e+02	1.53000e+03	0.05621	555.0
1531	5.56031e+02	1.53100e+03	0.0561934	555.5
1532	5.56460e+02	1.53200e+03	0.0561795	556.0
1533	5.56920e+02	1.53300e+03	0.056163	556.5
1534	5.57380e+02	1.53400e+03	0.0561456	557.0
1535	5.57867e+02	1.53500e+03	0.0561278	557.5
1536	5.58339e+02	1.53600e+03	0.0561072	558.0
1537	5.58805e+02	1.53700e+03	0.0560897	558.5
1538	5.59281e+02	1.53800e+03	0.0560745	559.0
1539	5.59753e+02	1.53900e+03	0.0560605	559.5
1540	5.60240e+02	1.54000e+03	0.0560502	560.0
1541	5.60723e+02	1.54100e+03	0.0560395	560.5
1542	5.61192e+02	1.54200e+03	0.0560289	561.0
1543	5.61664e+02	1.54300e+03	0.0560177	561.5
1544	5.62138e+02	1.54400e+03	0.0560036	562.0
1545	5.62634e+02	1.54500e+03	0.055987	562.5
1546	5.63121e+02	1.54600e+03	0.0559697	563.0
1547	5.63602e+02	1.54700e+03	0.0559524	563.5
1548	5.64074e+02	1.54800e+03	0.0559328	564.0
1549	5.64552e+02	1.54900e+03	0.0559211	564.5
1550	5.65028e+02	1.55000e+03	0.0559149	565.0
1551	5.65506e+02	1.55100e+03	0.0559122	565.5
1552	5.65983e+02	1.55200e+03	0.0559273	566.0
1553	5.66467e+02	1.55300e+03	0.0559382	566.5
1554	5.66950e+02	1.55400e+03	0.0559503	567.0
1555	5.67426e+02	1.55500e+03	0.0559638	567.5
1556	5.67912e+02	1.55600e+03	0.0559852	568.0
1557	5.68396e+02	1.55700e+03	0.0559998	568.5
1558	5.68865e+02	1.55800e+03	0.0560122	569.0
1559	5.69346e+02	1.55900e+03	0.0560236	569.5
1560	5.69826e+02	1.56000e+03	0.0560275	570.0
1561	5.70316e+02	1.56100e+03	0.0560321	570.5
1562	5.70801e+02	1.56200e+03	0.0560353	571.0
1563	5.71293e+02	1.56300e+03	0.0560377	571.5
1564	5.71765e+02	1.56400e+03	0.0560355	572.0
1565	5.72255e+02	1.56500e+03	0.0560358	572.5
1566	5.72739e+02	1.56600e+03	0.0560365	573.0
1567	5.73229e+02	1.56700e+03	0.0560377	573.5
1568	5.73715e+02	1.56800e+03	0.0560394	574.0
1569	5.74196e+02	1.56900e+03	0.0560417	574.5
1570	5.74675e+02	1.57000e+03	0.0560441	575.0
1571	5.75160e+02	1.57100e+03	0.0560462	575.5
1572	5.75645e+02	1.57200e+03	0.056049	576.0
1573	5.76135e+02	1.57300e+03	0.0560516	576.5
1574	5.76617e+02	1.57400e+03	0.0560532	577.0
1575	5.77110e+02	1.57500e+03	0.0560537	577.5
1576	5.77598e+02	1.57600e+03	0.0560503	578.0
1577	5.78100e+02	1.57700e+03	0.0560466	578.5
1578	5.78584e+02	1.57800e+03	0.0560442	579.0
1579	5.79075e+02	1.57900e+03	0.056043	579.5
1580	5.79559e+02	1.58000e+03	0.0560421	580.0
1581	5.80057e+02	1.58100e+03	0.0560466	580.5
1582	5.80543e+02	1.58200e+03	0.0560547	581.0
1583	5.81031e+02	1.58300e+03	0.0560645	581.5
1584	5.81520e+02	1.58400e+03	0.0560843	582.0
1585	5.82007e+02	1.58500e+03	0.0560966	582.5
1586	5.82498e+02	1.58600e+03	0.0561057	583.0
1587	5.82981e+02	1.58700e+03	0.0561139	583.5
1588	5.83474e+02	1.58800e+03	0.0561145	584.0
1589	5.83964e+02	1.58900e+03	0.0561131	584.5
1590	5.84450e+02	1.59000e+03	0.0561085	585.0
1591	5.84945e+02	1.59100e+03	0.0561022	585.5
1592	5.85431e+02	1.59200e+03	0.0560882	586.0
1593	5.85919e+02	1.59300e+03	0.056081	586.5
1594	5.86408e+02	1.59400e+03	0.0560759	587.0
1595	5.86905e+02	1.59500e+03	0.0560718	587.5
1596	5.87375e+02	1.59600e+03	0.0560736	588.0
1597	5.87863e+02	1.59700e+03	0.0560738	588.5
1598	5.88352e+02	1.59800e+03	0.0560728	589.0
1599	5.88848e+02	1.59900e+03	0.0560705	589.5
1600	5.89345e+02	1.60000e+03	0.056066	590.0
1601	5.89841e+02	1.60100e+03	0.0560603	590.5
1602	5.90347e+02	1.60200e+03	0.0560555	591.0
1603	5.90850e+02	1.60300e+03	0.0560513	591.5
1604	5.91347e+02	1.60400e+03	0.056043	592.0
1605	5.91859e+02	1.60500e+03	0.0560397	592.5
1606	5.92362e+02	1.60600e+03	0.0560387	593.0
1607	5.92837e+02	1.60700e+03	0.0560387	593.5
1608	5.93325e+02	1.60800e+03	0.0560478	594.0
1609	5.93818e+02	1.60900e+03	0.0560541	594.5
1610	5.94338e+02	1.61000e+03	0.0560609	595.0
1611	5.94837e+02	1.61100e+03	0.056069	595.5
1612	5.95379e+02	1.61200e+03	0.0560823	596.0
1613	5.95893e+02	1.61300e+03	0.0560936	596.5
1614	5.96438e+02	1.61400e+03	0.0561044	597.0
1615	5.96923e+02	1.61500e+03	0.0561155	597.5
1616	5.98625e+02	1.61600e+03	0.0561258	598.0
1617	5.99417e+02	1.61700e+03	0.056132	598.5
1618	5.99729e+02	1.61800e+03	0.0561339	599.0
1619	6.00104e+02	1.61900e+03	0.0561331	599.5
1620	6.00553e+02	1.62000e+03	0.0561201	600.0
1621	6.00994e+02	1.62100e+03	0.0561089	600.5
1622	6.01451e+02	1.62200e+03	0.0560973	601.0
1623	6.01914e+02	1.62300e+03	0.0560856	601.5
1624	6.02393e+02	1.62400e+03	0.0560705	602.0
1625	6.02856e+02	1.62500e+03	0.0560633	602.5
1626	6.03335e+02	1.62600e+03	0.0560607	603.0
1627	6.03835e+02	1.62700e+03	0.056061	603.5
1628	6.04327e+02	1.62800e+03	0.0560783	604.0
1629	6.04815e+02	1.62900e+03	0.056091	604.5
1630	6.05299e+02	1.63000e+03	0.0561025	605.0
1631	6.05808e+02	1.63100e+03	0.0561133	605.5
1632	6.06297e+02	1.63200e+03	0.0561273	606.0
1633	6.06773e+02	1.63300e+03	0.0561346	606.5
1634	6.07253e+02	1.63400e+03	0.0561368	607.0
1635	6.07742e+02	1.63500e+03	0.0561356	607.5
1636	6.08219e+02	1.63600e+03	0.0561198	608.0
1637	6.08716e+02	1.63700e+03	0.0561104	608.5
1638	6.09206e+02	1.63800e+03	0.0561036	609.0
1639	6.09696e+02	1.63900e+03	0.0560979	609.5
1640	6.10182e+02	1.64000e+03	0.0560933	610.0
1641	6.10678e+02	1.64100e+03	0.0560943	610.5
1642	6.11164e+02	1.64200e+03	0.0560991	611.0
1643	6.11648e+02	1.64300e+03	0.0561063	611.5
1644	6.12125e+02	1.64400e+03	0.0561241	612.0
1645	6.12602e+02	1.64500e+03	0.0561325	612.5
1646	6.13080e+02	1.64600e+03	0.0561363	613.0
1647	6.13566e+02	1.64700e+03	0.0561379	613.5
1648	6.14064e+02	1.64800e+03	0.0561277	614.0
1649	6.14569e+02	1.64900e+03	0.0561158	614.5
1650	6.15058e+02	1.65000e+03	0.0560995	615.0
1651	6.15560e+02	1.65100e+03	0.0560804	615.5
1652	6.16067e+02	1.65200e+03	0.056047	616.0
1653	6.16566e+02	1.65300e+03	0.0560213	616.5
1654	6.17060e+02	1.65400e+03	0.0559965	617.0
1655	6.17550e+02	1.65500e+03	0.055971	617.5
1656	6.18036e+02	1.65600e+03	0.0559462	618.0
1657	6.18519e+02	1.65700e+03	0.0559245	618.5
1658	6.19004e+02	1.65800e+03	0.0559063	619.0
1659	6.19464e+02	1.65900e+03	0.0558905	619.5
1660	6.19962e+02	1.66000e+03	0.0558851	620.0
1661	6.20466e+02	1.66100e+03	0.0558813	620.5
1662	6.20965e+02	1.66200e+03	0.0558828	621.0
1663	6.21454e+02	1.66300e+03	0.0558886	621.5
1664	6.21957e+02	1.66400e+03	0.0559113	622.0
1665	6.22417e+02	1.66500e+03	0.055928	622.5
1666	6.22900e+02	1.66600e+03	0.0559449	623.0
1667	6.23382e+02	1.66700e+03	0.0559625	623.5
1668	6.23852e+02	1.66800e+03	0.0559832	624.0
1669	6.24301e+02	1.66900e+03	0.0559968	624.5
1670	6.24752e+02	1.67000e+03	0.0560041	625.0
1671	6.25210e+02	1.67100e+03	0.0560066	625.5
1672	6.25661e+02	1.67200e+03	0.0559945	626.0
1673	6.26138e+02	1.67300e+03	0.0559873	626.5
1674	6.26606e+02	1.67400e+03	0.0559804	627.0
1675	6.27079e+02	1.67500e+03	0.055973	627.5
1676	6.27560e+02	1.67600e+03	0.0559601	628.0
1677	6.28032e+02	1.67700e+03	0.0559536	628.5
1678	6.28513e+02	1.67800e+03	0.0559508	629.0
1679	6.28996e+02	1.67900e+03	0.0559502	629.5
1680	6.29466e+02	1.68000e+03	0.0559583	630.0
1681	6.29952e+02	1.68100e+03	0.0559594	630.5
1682	6.30441e+02	1.68200e+03	0.0559555	631.0
1683	6.30920e+02	1.68300e+03	0.0559493	631.5
1684	6.31416e+02	1.68400e+03	0.0559425	632.0
1685	6.31899e+02	1.68500e+03	0.0559353	632.5
1686	6.32373e+02	1.68600e+03	0.0559264	633.0
1687	6.32867e+02	1.68700e+03	0.0559165	633.5
1688	6.33355e+02	1.68800e+03	0.055906	634.0
1689	6.33854e+02	1.68900e+03	0.0558999	634.5
1690	6.34343e+02	1.69000e+03	0.0558967	635.0
1691	6.34824e+02	1.69100e+03	0.0558951	635.5
1692	6.35329e+02	1.69200e+03	0.0559012	636.0
1693	6.35824e+02	1.69300e+03	0.0559065	636.5
1694	6.36317e+02	1.69400e+03	0.0559144	637.0
1695	6.36806e+02	1.69500e+03	0.0559247	637.5
1696	6.37301e+02	1.69600e+03	0.0559405	638.0
1697	6.37793e+02	1.69700e+03	0.0559507	638.5
1698	6.38280e+02	1.69800e+03	0.0559567	639.0
1699	6.38779e+02	1.69900e+03	0.0559599	639.5
1700	6.39268e+02	1.70000e+03	0.055954	640.0
1701	6.39760e+02	1.70100e+03	0.055946	640.5
1702	6.40245e+02	1.70200e+03	0.0559349	641.0
1703	6.40742e+02	1.70300e+03	0.0559223	641.5
1704	6.41239e+02	1.70400e+03	0.0559016	642.0
1705	6.41734e+02	1.70500e+03	0.0558914	642.5
1706	6.42224e+02	1.70600e+03	0.0558849	643.0
1707	6.42714e+02	1.70700e+03	0.055879	643.5
1708	6.43204e+02	1.70800e+03	0.0558804	644.0
1709	6.43702e+02	1.70900e+03	0.0558753	644.5
1710	6.44193e+02	1.71000e+03	0.0558677	645.0
1711	6.44683e+02	1.71100e+03	0.0558589	645.5
1712	6.45188e+02	1.71200e+03	0.0558417	646.0
1713	6.45680e+02	1.71300e+03	0.0558272	646.5
1714	6.46170e+02	1.71400e+03	0.0558151	647.0
1715	6.46661e+02	1.71500e+03	0.055805	647.5
1716	6.47159e+02	1.71600e+03	0.0558003	648.0
1717	6.47662e+02	1.71700e+03	0.0558019	648.5
1718	6.48154e+02	1.71800e+03	0.0558086	649.0
1719	6.48646e+02	1.71900e+03	0.0558186	649.5
1720	6.49144e+02	1.72000e+03	0.0558457	650.0
1721	6.49629e+02	1.72100e+03	0.0558615	650.5
1722	6.50129e+02	1.72200e+03	0.0558736	651.0
1723	6.50630e+02	1.72300e+03	0.0558852	651.5
1724	6.51125e+02	1.72400e+03	0.0558935	652.0
1725	6.51608e+02	1.72500e+03	0.0559023	652.5
1726	6.52100e+02	1.72600e+03	0.0559094	653.0
1727	6.52590e+02	1.72700e+03	0.0559149	653.5
1728	6.53085e+02	1.72800e+03	0.0559116	654.0
1729	6.53583e+02	1.72900e+03	0.0559079	654.5
1730	6.54071e+02	1.73000e+03	0.0559028	655.0
1731	6.54560e+02	1.73100e+03	0.0558967	655.5
1732	6.55054e+02	1.73200e+03	0.0558841	656.0
1733	6.55553e+02	1.73300e+03	0.0558786	656.5
1734	6.56049e+02	1.73400e+03	0.0558781	657.0
1735	6.56539e+02	1.73500e+03	0.055881	657.5
1736	6.57029e+02	1.73600e+03	0.0558957	658.0
1737	6.57517e+02	1.73700e+03	0.0559075	658.5
1738	6.58008e+02	1.73800e+03	0.0559194	659.0
1739	6.58504e+02	1.73900e+03	0.0559319	659.5
1740	6.59010e+02	1.74000e+03	0.0559519	660.0
1741	6.59509e+02	1.74100e+03	0.0559653	660.5
1742	6.60009e+02	1.74200e+03	0.055975	661.0
1743	6.60512e+02	1.74300e+03	0.0559824	661.5
1744	6.61020e+02	1.74400e+03	0.0559788	662.0
1745	6.61513e+02	1.74500e+03	0.0559763	662.5
1746	6.62010e+02	1.74600e+03	0.0559724	663.0
1747	6.62514e+02	1.74700e+03	0.055967	663.5
1748	6.63028e+02	1.74800e+03	0.0559539	664.0
1749	6.63531e+02	1.74900e+03	0.0559486	664.5
1750	6.64020e+02	1.75000e+03	0.0559477	665.0
1751	6.64517e+02	1.75100e+03	0.0559493	665.5
1752	6.65018e+02	1.75200e+03	0.055963	666.0
1753	6.65522e+02	1.75300e+03	0.0559773	666.5
1754	6.66026e+02	1.75400e+03	0.0559946	667.0
1755	6.66518e+02	1.75500e+03	0.0560137	667.5
1756	6.67015e+02	1.75600e+03	0.05604	668.0
1757	6.67514e+02	1.75700e+03	0.0560562	668.5
1758	6.68009e+02	1.75800e+03	0.0560675	669.0
1759	6.68503e+02	1.75900e+03	0.0560767	669.5
1760	6.68995e+02	1.76000e+03	0.0560714	670.0
1761	6.69488e+02	1.76100e+03	0.056068	670.5
1762	6.69993e+02	1.76200e+03	0.0560627	671.0
1763	6.70494e+02	1.76300e+03	0.0560563	671.5
1764	6.70982e+02	1.76400e+03	0.0560428	672.0
1765	6.71473e+02	1.76500e+03	0.0560345	672.5
1766	6.71963e+02	1.76600e+03	0.0560274	673.0
1767	6.72456e+02	1.76700e+03	0.0560206	673.5
1768	6.72953e+02	1.76800e+03	0.0560215	674.0
1769	6.73446e+02	1.76900e+03	0.0560241	674.5
1770	6.73949e+02	1.77000e+03	0.0560302	675.0
1771	6.74447e+02	1.77100e+03	0.0560386	675.5
1772	6.74939e+02	1.77200e+03	0.0560635	676.0
1773	6.75437e+02	1.77300e+03	0.056089	676.5
1774	6.75924e+02	1.77400e+03	0.0561182	677.0
1775	6.76428e+02	1.77500e+03	0.0561501	677.5
1776	6.76933e+02	1.77600e+03	0.0561979	678.0
1777	6.77420e+02	1.77700e+03	0.0562372	678.5
1778	6.77927e+02	1.77800e+03	0.0562734	679.0
1779	6.78409e+02	1.77900e+03	0.0563075	679.5
1780	6.78897e+02	1.78000e+03	0.056328	680.0
1781	6.79395e+02	1.78100e+03	0.0563425	680.5
1782	6.79892e+02	1.78200e+03	0.0563502	681.0
1783	6.80381e+02	1.78300e+03	0.0563533	681.5
1784	6.80866e+02	1.78400e+03	0.0563236	682.0
1785	6.81361e+02	1.78500e+03	0.0563015	682.5
1786	6.81848e+02	1.78600e+03	0.0562774	683.0
1787	6.82338e+02	1.78700e+03	0.0562517	683.5
1788	6.82826e+02	1.78800e+03	0.0562117	684.0
1789	6.83310e+02	1.78900e+03	0.0561794	684.5
1790	6.83806e+02	1.79000e+03	0.056149	685.0
1791	6.84311e+02	1.79100e+03	0.0561192	685.5
1792	6.84793e+02	1.79200e+03	0.0560962	686.0
1793	6.85281e+02	1.79300e+03	0.056074	686.5
1794	6.85782e+02	1.79400e+03	0.0560543	687.0
1795	6.85987e+02	1.79500e+03	0.0560369	687.5
1796	6.86171e+02	1.79600e+03	0.0560356	688.0
1797	6.86468e+02	1.79700e+03	0.0560343	688.5
1798	6.86828e+02	1.79800e+03	0.0560354	689.0
1799	6.87190e+02	1.79900e+03	0.0560379	689.5
1800	6.87557e+02	1.80000e+03	0.056061	690.0
1801	6.87897e+02	1.80100e+03	0.0560752	690.5
1802	6.88221e+02	1.80200e+03	0.0560818	691.0
1803	6.88541e+02	1.80300e+03	0.0560829	691.5
1804	6.88859e+02	1.80400e+03	0.0560812	692.0
1805	6.89175e+02	1.80500e+03	0.0560754	692.5
1806	6.89467e+02	1.80600e+03	0.0560671	693.0
1807	6.89735e+02	1.80700e+03	0.0560573	693.5
1808	6.90009e+02	1.80800e+03	0.0560333	694.0
1809	6.90286e+02	1.80900e+03	0.0560184	694.5
1810	6.90552e+02	1.81000e+03	0.056007	695.0
1811	6.90798e+02	1.81100e+03	0.055997	695.5
1812	6.91040e+02	1.81200e+03	0.0559941	696.0
1813	6.91270e+02	1.81300e+03	0.0559894	696.5
1814	6.91495e+02	1.81400e+03	0.0559862	697.0
1815	6.91722e+02	1.81500e+03	0.0559858	697.5
1816	6.91942e+02	1.81600e+03	0.0559938	698.0
1817	6.92150e+02	1.81700e+03	0.0560021	698.5
1818	6.92346e+02	1.81800e+03	0.0560149	699.0
1819	6.92547e+02	1.81900e+03	0.0560322	699.5
1820	6.92732e+02	1.82000e+03	0.056064	700.0
1821	6.92909e+02	1.82100e+03	0.0560903	700.0
1822	6.93074e+02	1.82200e+03	0.0561127	700.0
1823	6.93253e+02	1.82300e+03	0.0561328	700.0
1824	6.93418e+02	1.82400e+03	0.0561514	700.0
1825	6.93582e+02	1.82500e+03	0.0561616	700.0
1826	6.93733e+02	1.82600e+03	0.0561644	700.0
1827	6.93879e+02	1.82700e+03	0.0561625	700.0
1828	6.94030e+02	1.82800e+03	0.0561354	700.0
1829	6.94172e+02	1.82900e+03	0.0561196	700.0
1830	6.94312e+02	1.83000e+03	0.0561091	700.0
1831	6.94434e+02	1.83100e+03	0.0561002	700.0
1832	6.94563e+02	1.83200e+03	0.0560901	700.0
1833	6.94694e+02	1.83300e+03	0.0560858	700.0
1834	6.94819e+02	1.83400e+03	0.0560847	700.0
1835	6.94936e+02	1.83500e+03	0.0560859	700.0
1836	6.95049e+02	1.83600e+03	0.0560998	700.0
1837	6.95173e+02	1.83700e+03	0.0561076	700.0
1838	6.95281e+02	1.83800e+03	0.0561173	700.0
1839	6.95385e+02	1.83900e+03	0.0561298	700.0
1840	6.95488e+02	1.84000e+03	0.0561444	700.0
1841	6.95587e+02	1.84100e+03	0.0561576	700.0
1842	6.95687e+02	1.84200e+03	0.0561728	700.0
1843	6.95783e+02	1.84300e+03	0.0561898	700.0
1844	6.95869e+02	1.84400e+03	0.0562125	700.0
1845	6.95962e+02	1.84500e+03	0.0562341	700.0
1846	6.96058e+02	1.84600e+03	0.0562536	700.0
1847	6.96134e+02	1.84700e+03	0.0562704	700.0
1848	6.96218e+02	1.84800e+03	0.0562843	700.0
1849	6.96297e+02	1.84900e+03	0.0562942	700.0
1850	6.96379e+02	1.85000e+03	0.0562986	700.0
1851	6.96452e+02	1.85100e+03	0.0562988	700.0
1852	6.96536e+02	1.85200e+03	0.056282	700.0
1853	6.96598e+02	1.85300e+03	0.0562723	700.0
1854	6.96672e+02	1.85400e+03	0.0562639	700.0
1855	6.96738e+02	1.85500e+03	0.0562558	700.0
1856	6.96812e+02	1.85600e+03	0.0562461	700.0
1857	6.96878e+02	1.85700e+03	0.0562412	700.0
1858	6.96938e+02	1.85800e+03	0.0562391	700.0
1859	6.97005e+02	1.85900e+03	0.0562387	700.0
1860	6.97061e+02	1.86000e+03	0.056249	700.0
1861	6.97120e+02	1.86100e+03	0.0562568	700.0
1862	6.97182e+02	1.86200e+03	0.0562653	700.0
1863	6.97244e+02	1.86300e+03	0.0562737	700.0
1864	6.97292e+02	1.86400e+03	0.0562815	700.0
1865	6.97353e+02	1.86500e+03	0.0562822	700.0
1866	6.97411e+02	1.86600e+03	0.0562796	700.0
1867	6.97462e+02	1.86700e+03	0.0562768	700.0
1868	6.97513e+02	1.86800e+03	0.0562619	700.0
1869	6.97556e+02	1.86900e+03	0.0562511	700.0
1870	6.97607e+02	1.87000e+03	0.0562419	700.0
1871	6.97654e+02	1.87100e+03	0.056234	700.0
1872	6.97703e+02	1.87200e+03	0.0562268	700.0
1873	6.97753e+02	1.87300e+03	0.0562216	700.0
1874	6.97792e+02	1.87400e+03	0.0562195	700.0
1875	6.97828e+02	1.87500e+03	0.0562212	700.0
1876	6.97866e+02	1.87600e+03	0.0562359	700.0
1877	6.97904e+02	1.87700e+03	0.0562478	700.0
1878	6.97946e+02	1.87800e+03	0.0562594	700.0
1879	6.97986e+02	1.87900e+03	0.0562711	700.0
1880	6.98020e+02	1.88000e+03	0.0562898	700.0
1881	6.98059e+02	1.88100e+03	0.0563015	700.0
1882	6.98098e+02	1.88200e+03	0.0563105	700.0
1883	6.98132e+02	1.88300e+03	0.0563184	700.0
1884	6.98156e+02	1.88400e+03	0.0563173	700.0
1885	6.98183e+02	1.88500e+03	0.0563188	700.0
1886	6.98227e+02	1.88600e+03	0.0563193	700.0
1887	6.98251e+02	1.88700e+03	0.0563185	700.0
1888	6.98283e+02	1.88800e+03	0.0563132	700.0
1889	6.98310e+02	1.88900e+03	0.0563096	700.0
1890	6.98337e+02	1.89000e+03	0.0563069	700.0
1891	6.98376e+02	1.89100e+03	0.0563049	700.0
1892	6.98395e+02	1.89200e+03	0.0563054	700.0
1893	6.98416e+02	1.89300e+03	0.0563087	700.0
1894	6.98441e+02	1.89400e+03	0.0563143	700.0
1895	6.98475e+02	1.89500e+03	0.0563213	700.0
1896	6.98503e+02	1.89600e+03	0.0563374	700.0
1897	6.98531e+02	1.89700e+03	0.0563497	700.0
1898	6.98560e+02	1.89800e+03	0.0563614	700.0
1899	6.98577e+02	1.89900e+03	0.0563731	700.0
1900	6.98605e+02	1.90000e+03	0.0563843	700.0
1901	6.98622e+02	1.90100e+03	0.0563938	700.0
1902	6.98641e+02	1.90200e+03	0.056402	700.0
1903	6.98662e+02	1.90300e+03	0.0564094	700.0
1904	6.98681e+02	1.90400e+03	0.0564117	700.0
1905	6.98700e+02	1.90500e+03	0.0564154	700.0
1906	6.98726e+02	1.90600e+03	0.0564184	700.0
1907	6.98741e+02	1.90700e+03	0.0564203	700.0
1908	6.98761e+02	1.90800e+03	0.0564114	700.0
1909	6.98777e+02	1.90900e+03	0.0563997	700.0
1910	6.98803e+02	1.91000e+03	0.0563856	700.0
1911	6.98818e+02	1.91100e+03	0.0563696	700.0
1912	6.98832e+02	1.91200e+03	0.0563385	700.0
1913	6.98856e+02	1.91300e+03	0.0563139	700.0
1914	6.98870e+02	1.91400e+03	0.0562905	700.0
1915	6.98880e+02	1.91500e+03	0.0562674	700.0
1916	6.98907e+02	1.91600e+03	0.0562462	700.0
1917	6.98913e+02	1.91700e+03	0.0562283	700.0
1918	6.98935e+02	1.91800e+03	0.0562145	700.0
1919	6.98945e+02	1.91900e+03	0.0562052	700.0
1920	6.98955e+02	1.92000e+03	0.0562157	700.0
1921	6.98972e+02	1.92100e+03	0.0562241	700.0
1922	6.98992e+02	1.92200e+03	0.056234	700.0
1923	6.98997e+02	1.92300e+03	0.0562451	700.0
1924	6.99008e+02	1.92400e+03	0.0562707	700.0
1925	6.99030e+02	1.92500e+03	0.0562855	700.0
1926	6.99044e+02	1.92600e+03	0.0562967	700.0
1927	6.99051e+02	1.92700e+03	0.0563061	700.0
1928	6.99058e+02	1.92800e+03	0.056303	700.0
1929	6.99079e+02	1.92900e+03	0.0563007	700.0
1930	6.99084e+02	1.93000e+03	0.0562948	700.0
1931	6.99091e+02	1.93100e+03	0.0562862	700.0
1932	6.99107e+02	1.93200e+03	0.0562618	700.0
1933	6.99116e+02	1.93300e+03	0.0562402	700.0
1934	6.99139e+02	1.93400e+03	0.0562175	700.0
1935	6.99150e+02	1.93500e+03	0.0561935	700.0
1936	6.99157e+02	1.93600e+03	0.0561619	700.0
1937	6.99165e+02	1.93700e+03	0.0561367	700.0
1938	6.99176e+02	1.93800e+03	0.056114	700.0
1939	6.99189e+02	1.93900e+03	0.0560926	700.0
1940	6.99193e+02	1.94000e+03	0.0560795	700.0
1941	6.99200e+02	1.94100e+03	0.0560659	700.0
1942	6.99212e+02	1.94200e+03	0.056054	700.0
1943	6.99222e+02	1.94300e+03	0.0560435	700.0
1944	6.99232e+02	1.94400e+03	0.0560415	700.0
1945	6.99243e+02	1.94500e+03	0.0560373	700.0
1946	6.99242e+02	1.94600e+03	0.0560342	700.0
1947	6.99259e+02	1.94700e+03	0.0560325	700.0
1948	6.99263e+02	1.94800e+03	0.056038	700.0
1949	6.99282e+02	1.94900e+03	0.0560437	700.0
1950	6.99286e+02	1.95000e+03	0.0560529	700.0
1951	6.99292e+02	1.95100e+03	0.0560662	700.0
1952	6.99297e+02	1.95200e+03	0.0560968	700.0
1953	6.99301e+02	1.95300e+03	0.0561247	700.0
1954	6.99317e+02	1.95400e+03	0.0561526	700.0
1955	6.99323e+02	1.95500e+03	0.0561808	700.0
1956	6.99321e+02	1.95600e+03	0.0562174	700.0
1957	6.99331e+02	1.95700e+03	0.0562441	700.0
1958	6.99336e+02	1.95800e+03	0.0562662	700.0
1959	6.99353e+02	1.95900e+03	0.056286	700.0
1960	6.99356e+02	1.96000e+03	0.0562895	700.0
1961	6.99355e+02	1.96100e+03	0.0562963	700.0
1962	6.99367e+02	1.96200e+03	0.0563011	700.0
1963	6.99372e+02	1.96300e+03	0.0563038	700.0
1964	6.99375e+02	1.96400e+03	0.0562968	700.0
1965	6.99376e+02	1.96500e+03	0.0562977	700.0
1966	6.99384e+02	1.96600e+03	0.0563033	700.0
1967	6.99400e+02	1.96700e+03	0.0563104	700.0
1968	6.99395e+02	1.96800e+03	0.0563229	700.0
1969	6.99404e+02	1.96900e+03	0.0563362	700.0
1970	6.99415e+02	1.97000e+03	0.0563516	700.0
1971	6.99422e+02	1.97100e+03	0.0563687	700.0
1972	6.99424e+02	1.97200e+03	0.0563974	700.0
1973	6.99425e+02	1.97300e+03	0.0564237	700.0
1974	6.99428e+02	1.97400e+03	0.0564508	700.0
1975	6.99440e+02	1.97500e+03	0.0564788	700.0
1976	6.99446e+02	1.97600e+03	0.0565105	700.0
1977	6.99448e+02	1.97700e+03	0.0565369	700.0
1978	6.99448e+02	1.97800e+03	0.0565605	700.0
1979	6.99453e+02	1.97900e+03	0.0565838	700.0
1980	6.99465e+02	1.98000e+03	0.0565965	700.0
1981	6.99468e+02	1.98100e+03	0.0566056	700.0
1982	6.99467e+02	1.98200e+03	0.0566085	700.0
1983	6.99471e+02	1.98300e+03	0.0566068	700.0
1984	6.99480e+02	1.98400e+03	0.0565836	700.0
1985	6.99477e+02	1.98500e+03	0.0565639	700.0
1986	6.99487e+02	1.98600e+03	0.0565418	700.0
1987	6.99485e+02	1.98700e+03	0.0565176	700.0
1988	6.99494e+02	1.98800e+03	0.0564805	700.0
1989	6.99502e+02	1.98900e+03	0.0564524	700.0
1990	6.99501e+02	1.99000e+03	0.0564287	700.0
1991	6.99504e+02	1.99100e+03	0.0564087	700.0
1992	6.99507e+02	1.99200e+03	0.0564006	700.0
1993	6.99508e+02	1.99300e+03	0.0563894	700.0
1994	6.99517e+02	1.99400e+03	0.0563769	700.0
1995	6.99516e+02	1.99500e+03	0.0563636	700.0
1996	6.99515e+02	1.99600e+03	0.0563532	700.0
1997	6.99518e+02	1.99700e+03	0.0563358	700.0
1998	6.99520e+02	1.99800e+03	0.0563157	700.0
1999	6.99529e+02	1.99900e+03	0.0562947	700.0
2000	6.99528e+02	2.00000e+03	0.0562656	700.0
2001	6.99531e+02	2.00100e+03	0.0562448	700.0
2002	6.99529e+02	2.00200e+03	0.0562276	700.0
2003	6.99536e+02	2.00300e+03	0.0562124	700.0
2004	6.99533e+02	2.00400e+03	0.0562098	700.0
2005	6.99541e+02	2.00500e+03	0.0562053	700.0
2006	6.99536e+02	2.00600e+03	0.0562024	700.0
2007	6.99547e+02	2.00700e+03	0.0562009	700.0
2008	6.99540e+02	2.00800e+03	0.0562079	700.0
2009	6.99545e+02	2.00900e+03	0.0562111	700.0
2010	6.99543e+02	2.01000e+03	0.0562158	700.0
2011	6.99549e+02	2.01100e+03	0.0562228	700.0
2012	6.99545e+02	2.01200e+03	0.05623	700.0
2013	6.99553e+02	2.01300e+03	0.0562343	700.0
2014	6.99557e+02	2.01400e+03	0.0562359	700.0
2015	6.99557e+02	2.01500e+03	0.0562357	700.0
2016	6.99561e+02	2.01600e+03	0.05623	700.0
2017	6.99566e+02	2.01700e+03	0.0562243	700.0
2018	6.99562e+02	2.01800e+03	0.0562179	700.0
2019	6.99565e+02	2.01900e+03	0.0562113	700.0
2020	6.99572e+02	2.02000e+03	0.0562005	700.0
2021	6.99573e+02	2.02100e+03	0.0561931	700.0
2022	6.99567e+02	2.02200e+03	0.0561859	700.0
2023	6.99573e+02	2.02300e+03	0.0561782	700.0
2024	6.99577e+02	2.02400e+03	0.056171	700.0
2025	6.99585e+02	2.02500e+03	0.0561635	700.0
2026	6.99585e+02	2.02600e+03	0.0561584	700.0
2027	6.99578e+02	2.02700e+03	0.0561545	700.0
2028	6.99576e+02	2.02800e+03	0.0561478	700.0
2029	6.99579e+02	2.02900e+03	0.0561415	700.0
2030	6.99591e+02	2.03000e+03	0.0561344	700.0
2031	6.99586e+02	2.03100e+03	0.0561265	700.0
2032	6.99585e+02	2.03200e+03	0.0561197	700.0
2033	6.99595e+02	2.03300e+03	0.0561165	700.0
2034	6.99594e+02	2.03400e+03	0.0561171	700.0
2035	6.99595e+02	2.03500e+03	0.0561189	700.0
2036	6.99591e+02	2.03600e+03	0.0561266	700.0
2037	6.99598e+02	2.03700e+03	0.0561338	700.0
2038	6.99601e+02	2.03800e+03	0.0561417	700.0
2039	6.99603e+02	2.03900e+03	0.0561501	700.0
2040	6.99603e+02	2.04000e+03	0.0561641	700.0
2041	6.99609e+02	2.04100e+03	0.0561747	700.0
2042	6.99602e+02	2.04200e+03	0.0561842	700.0
2043	6.99608e+02	2.04300e+03	0.0561933	700.0
2044	6.99597e+02	2.04400e+03	0.0561994	700.0
2045	6.99605e+02	2.04500e+03	0.0562058	700.0
2046	6.99604e+02	2.04600e+03	0.0562121	700.0
2047	6.99598e+02	2.04700e+03	0.0562185	700.0
2048	6.99608e+02	2.04800e+03	0.0562232	700.0
2049	6.99600e+02	2.04900e+03	0.0562284	700.0
2050	6.99618e+02	2.05000e+03	0.0562313	700.0
2051	6.99617e+02	2.05100e+03	0.0562321	700.0
2052	6.99604e+02	2.05200e+03	0.0562234	700.0
2053	6.99609e+02	2.05300e+03	0.0562106	700.0
2054	6.99608e+02	2.05400e+03	0.0561937	700.0
2055	6.99612e+02	2.05500e+03	0.0561745	700.0
2056	6.99618e+02	2.05600e+03	0.05614	700.0
2057	6.99617e+02	2.05700e+03	0.0561167	700.0
2058	6.99617e+02	2.05800e+03	0.056099	700.0
2059	6.99618e+02	2.05900e+03	0.0560845	700.0
2060	6.99617e+02	2.06000e+03	0.0560871	700.0
2061	6.99625e+02	2.06100e+03	0.0560909	700.0
2062	6.99617e+02	2.06200e+03	0.0560976	700.0
2063	6.99623e+02	2.06300e+03	0.0561065	700.0
2064	6.99621e+02	2.06400e+03	0.0561352	700.0
2065	6.99623e+02	2.06500e+03	0.0561531	700.0
2066	6.99628e+02	2.06600e+03	0.0561665	700.0
2067	6.99621e+02	2.06700e+03	0.0561777	700.0
2068	6.99612e+02	2.06800e+03	0.0561799	700.0
2069	6.99620e+02	2.06900e+03	0.0561811	700.0
2070	6.99624e+02	2.07000e+03	0.0561797	700.0
2071	6.99618e+02	2.07100e+03	0.0561766	700.0
2072	6.99624e+02	2.07200e+03	0.0561617	700.0
2073	6.99630e+02	2.07300e+03	0.0561517	700.0
2074	6.99621e+02	2.07400e+03	0.0561419	700.0
2075	6.99619e+02	2.07500e+03	0.0561314	700.0
2076	6.99625e+02	2.07600e+03	0.056119	700.0
2077	6.99627e+02	2.07700e+03	0.0561092	700.0
2078	6.99627e+02	2.07800e+03	0.0561031	700.0
2079	6.99635e+02	2.07900e+03	0.0560992	700.0
2080	6.99627e+02	2.08000e+03	0.0560974	700.0
2081	6.99625e+02	2.08100e+03	0.0560947	700.0
2082	6.99631e+02	2.08200e+03	0.056092	700.0
2083	6.99628e+02	2.08300e+03	0.0560894	700.0
2084	6.99629e+02	2.08400e+03	0.0560914	700.0
2085	6.99624e+02	2.08500e+03	0.0560948	700.0
2086	6.99628e+02	2.08600e+03	0.0561042	700.0
2087	6.99626e+02	2.08700e+03	0.0561179	700.0
2088	6.99622e+02	2.08800e+03	0.0561423	700.0
2089	6.99630e+02	2.08900e+03	0.0561653	700.0
2090	6.99634e+02	2.09000e+03	0.0561893	700.0
2091	6.99636e+02	2.09100e+03	0.0562143	700.0
2092	6.99629e+02	2.09200e+03	0.0562472	700.0
2093	6.99633e+02	2.09300e+03	0.0562723	700.0
2094	6.99627e+02	2.09400e+03	0.0562937	700.0
2095	6.99635e+02	2.09500e+03	0.0563133	700.0
2096	6.99632e+02	2.09600e+03	0.056325	700.0
2097	6.99629e+02	2.09700e+03	0.0563382	700.0
2098	6.99631e+02	2.09800e+03	0.0563476	700.0
2099	6.99635e+02	2.09900e+03	0.0563539	700.0
2100	6.99632e+02	2.10000e+03	0.0563483	700.0
2101	6.99636e+02	2.10100e+03	0.0563456	700.0
2102	6.99633e+02	2.10200e+03	0.0563433	700.0
2103	6.99627e+02	2.10300e+03	0.0563398	700.0
2104	6.99624e+02	2.10400e+03	0.0563259	700.0
2105	6.99636e+02	2.10500e+03	0.0563165	700.0
2106	6.99633e+02	2.10600e+03	0.0563077	700.0
2107	6.99636e+02	2.10700e+03	0.0562989	700.0
2108	6.99632e+02	2.10800e+03	0.0562932	700.0
2109	6.99633e+02	2.10900e+03	0.0562894	700.0
2110	6.99631e+02	2.11000e+03	0.056288	700.0
2111	6.99634e+02	2.11100e+03	0.0562881	700.0
2112	6.99631e+02	2.11200e+03	0.0562901	700.0
2113	6.99633e+02	2.11300e+03	0.0562873	700.0
2114	6.99628e+02	2.11400e+03	0.0562839	700.0
2115	6.99628e+02	2.11500e+03	0.0562806	700.0
2116	6.99629e+02	2.11600e+03	0.0562718	700.0
2117	6.99629e+02	2.11700e+03	0.0562653	700.0
2118	6.99637e+02	2.11800e+03	0.0562593	700.0
2119	6.99636e+02	2.11900e+03	0.0562533	700.0
2120	6.99626e+02	2.12000e+03	0.0562474	700.0
2121	6.99632e+02	2.12100e+03	0.0562416	700.0
2122	6.99638e+02	2.12200e+03	0.0562355	700.0
2123	6.99640e+02	2.12300e+03	0.056229	700.0
2124	6.99636e+02	2.12400e+03	0.0562216	700.0
2125	6.99630e+02	2.12500e+03	0.0562131	700.0
2126	6.99627e+02	2.12600e+03	0.0562044	700.0
2127	6.99638e+02	2.12700e+03	0.0561969	700.0
2128	6.99632e+02	2.12800e+03	0.0561921	700.0
2129	6.99637e+02	2.12900e+03	0.0561895	700.0
2130	6.99631e+02	2.13000e+03	0.0561897	700.0
2131	6.99633e+02	2.13100e+03	0.0561927	700.0
2132	6.99630e+02	2.13200e+03	0.0562056	700.0
2133	6.99633e+02	2.13300e+03	0.0562122	700.0
2134	6.99627e+02	2.13400e+03	0.0562155	700.0
2135	6.99631e+02	2.13500e+03	0.0562168	700.0
2136	6.99637e+02	2.13600e+03	0.0562127	700.0
2137	6.99642e+02	2.13700e+03	0.0562084	700.0
2138	6.99640e+02	2.13800e+03	0.0562024	700.0
2139	6.99626e+02	2.13900e+03	0.0561936	700.0
2140	6.99632e+02	2.14000e+03	0.0561693	700.0
2141	6.99632e+02	2.14100e+03	0.0561483	700.0
2142	6.99632e+02	2.14200e+03	0.0561273	700.0
2143	6.99634e+02	2.14300e+03	0.0561062	700.0
2144	6.99621e+02	2.14400e+03	0.0560837	700.0
2145	6.99625e+02	2.14500e+03	0.0560682	700.0
2146	6.99626e+02	2.14600e+03	0.0560546	700.0
2147	6.99626e+02	2.14700e+03	0.0560406	700.0
2148	6.99628e+02	2.14800e+03	0.0560374	700.0
2149	6.99635e+02	2.14900e+03	0.05603	700.0
2150	6.99630e+02	2.15000e+03	0.056023	700.0
2151	6.99627e+02	2.15100e+03	0.0560166	700.0
2152	6.99617e+02	2.15200e+03	0.0560091	700.0
2153	6.99623e+02	2.15300e+03	0.0560033	700.0
2154	6.99635e+02	2.15400e+03	0.056001	700.0
2155	6.99629e+02	2.15500e+03	0.0560012	700.0
2156	6.99626e+02	2.15600e+03	0.0560022	700.0
2157	6.99631e+02	2.15700e+03	0.0560006	700.0
2158	6.99636e+02	2.15800e+03	0.0559973	700.0
2159	6.99635e+02	2.15900e+03	0.0559931	700.0
2160	6.99628e+02	2.16000e+03	0.0559866	700.0
2161	6.99621e+02	2.16100e+03	0.0559824	700.0
2162	6.99628e+02	2.16200e+03	0.0559821	700.0
2163	6.99636e+02	2.16300e+03	0.0559844	700.0
2164	6.99629e+02	2.16400e+03	0.055989	700.0
2165	6.99619e+02	2.16500e+03	0.0559936	700.0
2166	6.99626e+02	2.16600e+03	0.0559985	700.0
2167	6.99630e+02	2.16700e+03	0.0560033	700.0
2168	6.99629e+02	2.16800e+03	0.0560119	700.0
2169	6.99626e+02	2.16900e+03	0.0560169	700.0
2170	6.99624e+02	2.17000e+03	0.0560218	700.0
2171	6.99629e+02	2.17100e+03	0.0560283	700.0
2172	6.99624e+02	2.17200e+03	0.0560382	700.0
2173	6.99622e+02	2.17300e+03	0.0560499	700.0
2174	6.99623e+02	2.17400e+03	0.0560617	700.0
2175	6.99629e+02	2.17500e+03	0.0560733	700.0
2176	6.99624e+02	2.17600e+03	0.0560906	700.0
2177	6.99618e+02	2.17700e+03	0.0561018	700.0
2178	6.99620e+02	2.17800e+03	0.0561105	700.0
2179	6.99617e+02	2.17900e+03	0.0561181	700.0
2180	6.99621e+02	2.18000e+03	0.0561174	700.0
2181	6.99613e+02	2.18100e+03	0.0561191	700.0
2182	6.99618e+02	2.18200e+03	0.0561197	700.0
2183	6.99613e+02	2.18300e+03	0.0561192	700.0
2184	6.99618e+02	2.18400e+03	0.056113	700.0
2185	6.99611e+02	2.18500e+03	0.0561066	700.0
2186	6.99619e+02	2.18600e+03	0.0560984	700.0
2187	6.99621e+02	2.18700e+03	0.0560888	700.0
2188	6.99611e+02	2.18800e+03	0.0560716	700.0
2189	6.99600e+02	2.18900e+03	0.0560563	700.0
2190	6.99619e+02	2.19000e+03	0.0560408	700.0
2191	6.99622e+02	2.19100e+03	0.0560249	700.0
2192	6.99617e+02	2.19200e+03	0.0560068	700.0
2193	6.99613e+02	2.19300e+03	0.0559916	700.0
2194	6.99613e+02	2.19400e+03	0.0559776	700.0
2195	6.99624e+02	2.19500e+03	0.0559644	700.0
2196	6.99620e+02	2.19600e+03	0.0559549	700.0
2197	6.99612e+02	2.19700e+03	0.0559439	700.0
2198	6.99608e+02	2.19800e+03	0.0559328	700.0
2199	6.99609e+02	2.19900e+03	0.0559217	700.0
2200	6.99610e+02	2.20000e+03	0.0559109	700.0
2201	6.99604e+02	2.20100e+03	0.0558995	700.0
2202	6.99606e+02	2.20200e+03	0.0558881	700.0
2203	6.99613e+02	2.20300e+03	0.0558769	700.0
2204	6.99611e+02	2.20400e+03	0.0558663	700.0
2205	6.99609e+02	2.20500e+03	0.0558583	700.0
2206	6.99609e+02	2.20600e+03	0.0558553	700.0
2207	6.99607e+02	2.20700e+03	0.0558563	700.0
2208	6.99603e+02	2.20800e+03	0.0558679	700.0
2209	6.99602e+02	2.20900e+03	0.0558788	700.0
2210	6.99602e+02	2.21000e+03	0.0558936	700.0
2211	6.99605e+02	2.21100e+03	0.0559131	700.0
2212	6.99618e+02	2.21200e+03	0.0559553	700.0
2213	6.99611e+02	2.21300e+03	0.0559933	700.0
2214	6.99608e+02	2.21400e+03	0.0560315	700.0
2215	6.99609e+02	2.21500e+03	0.0560704	700.0
2216	6.99602e+02	2.21600e+03	0.056119	700.0
2217	6.99605e+02	2.21700e+03	0.0561558	700.0
2218	6.99611e+02	2.21800e+03	0.0561862	700.0
2219	6.99600e+02	2.21900e+03	0.0562129	700.0
2220	6.99595e+02	2.22000e+03	0.056215	700.0
2221	6.99610e+02	2.22100e+03	0.0562175	700.0
2222	6.99603e+02	2.22200e+03	0.0562133	700.0
2223	6.99600e+02	2.22300e+03	0.0562037	700.0
2224	6.99602e+02	2.22400e+03	0.0561642	700.0
2225	6.99597e+02	2.22500e+03	0.0561322	700.0
2226	6.99606e+02	2.22600e+03	0.0560986	700.0
2227	6.99600e+02	2.22700e+03	0.0560628	700.0
2228	6.99603e+02	2.22800e+03	0.0560142	700.0
2229	6.99602e+02	2.22900e+03	0.055974	700.0
2230	6.99594e+02	2.23000e+03	0.0559377	700.0
2231	6.99599e+02	2.23100e+03	0.0559048	700.0
2232	6.99591e+02	2.23200e+03	0.0558869	700.0
2233	6.99597e+02	2.23300e+03	0.0558697	700.0
2234	6.99602e+02	2.23400e+03	0.055855	700.0
2235	6.99603e+02	2.23500e+03	0.0558422	700.0
2236	6.99601e+02	2.23600e+03	0.0558475	700.0
2237	6.99596e+02	2.23700e+03	0.0558445	700.0
2238	6.99596e+02	2.23800e+03	0.0558406	700.0
2239	6.99607e+02	2.23900e+03	0.0558371	700.0
2240	6.99603e+02	2.24000e+03	0.0558347	700.0
2241	6.99599e+02	2.24100e+03	0.0558324	700.0
2242	6.99607e+02	2.24200e+03	0.0558311	700.0
2243	6.99609e+02	2.24300e+03	0.0558318	700.0
2244	6.99597e+02	2.24400e+03	0.0558411	700.0
2245	6.99595e+02	2.24500e+03	0.0558511	700.0
2246	6.99608e+02	2.24600e+03	0.0558613	700.0
2247	6.99613e+02	2.24700e+03	0.0558717	700.0
2248	6.99608e+02	2.24800e+03	0.0558895	700.0
2249	6.99597e+02	2.24900e+03	0.0559007	700.0
2250	6.99603e+02	2.25000e+03	0.0559093	700.0
2251	6.99603e+02	2.25100e+03	0.0559169	700.0
2252	6.99603e+02	2.25200e+03	0.055917	700.0
2253	6.99599e+02	2.25300e+03	0.0559197	700.0
2254	6.99610e+02	2.25400e+03	0.0559222	700.0
2255	6.99603e+02	2.25500e+03	0.0559242	700.0
2256	6.99605e+02	2.25600e+03	0.0559247	700.0
2257	6.99599e+02	2.25700e+03	0.0559302	700.0
2258	6.99601e+02	2.25800e+03	0.0559395	700.0
2259	6.99603e+02	2.25900e+03	0.0559498	700.0
2260	6.99604e+02	2.26000e+03	0.0559632	700.0
2261	6.99600e+02	2.26100e+03	0.0559752	700.0
2262	6.99602e+02	2.26200e+03	0.0559881	700.0
2263	6.99602e+02	2.26300e+03	0.0560009	700.0
2264	6.99599e+02	2.26400e+03	0.0560069	700.0
2265	6.99599e+02	2.26500e+03	0.0560084	700.0
2266	6.99602e+02	2.26600e+03	0.0560033	700.0
2267	6.99602e+02	2.26700e+03	0.0559921	700.0
2268	6.99592e+02	2.26800e+03	0.0559586	700.0
2269	6.99598e+02	2.26900e+03	0.0559314	700.0
2270	6.99602e+02	2.27000e+03	0.0559052	700.0
2271	6.99592e+02	2.27100e+03	0.0558794	700.0
2272	6.99595e+02	2.27200e+03	0.0558485	700.0
2273	6.99593e+02	2.27300e+03	0.0558309	700.0
2274	6.99593e+02	2.27400e+03	0.0558232	700.0
2275	6.99591e+02	2.27500e+03	0.0558213	700.0
2276	6.99586e+02	2.27600e+03	0.0558447	700.0
2277	6.99592e+02	2.27700e+03	0.0558601	700.0
2278	6.99601e+02	2.27800e+03	0.0558765	700.0
2279	6.99593e+02	2.27900e+03	0.0558947	700.0
2280	6.99590e+02	2.28000e+03	0.055925	700.0
2281	6.99585e+02	2.28100e+03	0.0559494	700.0
2282	6.99585e+02	2.28200e+03	0.055972	700.0
2283	6.99595e+02	2.28300e+03	0.0559939	700.0
2284	6.99595e+02	2.28400e+03	0.0560107	700.0
2285	6.99586e+02	2.28500e+03	0.0560241	700.0
2286	6.99591e+02	2.28600e+03	0.0560331	700.0
2287	6.99593e+02	2.28700e+03	0.0560386	700.0
2288	6.99584e+02	2.28800e+03	0.0560259	700.0
2289	6.99591e+02	2.28900e+03	0.0560179	700.0
2290	6.99587e+02	2.29000e+03	0.0560099	700.0
2291	6.99584e+02	2.29100e+03	0.0560003	700.0
2292	6.99582e+02	2.29200e+03	0.0559819	700.0
2293	6.99589e+02	2.29300e+03	0.0559697	700.0
2294	6.99583e+02	2.29400e+03	0.0559572	700.0
2295	6.99583e+02	2.29500e+03	0.0559435	700.0
2296	6.99578e+02	2.29600e+03	0.0559323	700.0
2297	6.99576e+02	2.29700e+03	0.0559189	700.0
2298	6.99583e+02	2.29800e+03	0.055905	700.0
2299	6.99586e+02	2.29900e+03	0.055891	700.0
2300	6.99581e+02	2.30000e+03	0.0558766	700.0
2301	6.99589e+02	2.30100e+03	0.0558653	700.0
2302	6.99590e+02	2.30200e+03	0.0558565	700.0
2303	6.99586e+02	2.30300e+03	0.0558492	700.0
2304	6.99583e+02	2.30400e+03	0.0558509	700.0
2305	6.99584e+02	2.30500e+03	0.0558516	700.0
2306	6.99586e+02	2.30600e+03	0.0558525	700.0
2307	6.99577e+02	2.30700e+03	0.0558522	700.0
2308	6.99572e+02	2.30800e+03	0.055852	700.0
2309	6.99583e+02	2.30900e+03	0.0558487	700.0
2310	6.99576e+02	2.31000e+03	0.0558451	700.0
2311	6.99575e+02	2.31100e+03	0.0558416	700.0
2312	6.99578e+02	2.31200e+03	0.0558316	700.0
2313	6.99578e+02	2.31300e+03	0.0558267	700.0
2314	6.99581e+02	2.31400e+03	0.0558235	700.0
2315	6.99572e+02	2.31500e+03	0.055821	700.0
2316	6.99575e+02	2.31600e+03	0.0558243	700.0
2317	6.99579e+02	2.31700e+03	0.0558294	700.0
2318	6.99581e+02	2.31800e+03	0.0558384	700.0
2319	6.99572e+02	2.31900e+03	0.0558489	700.0
2320	6.99575e+02	2.32000e+03	0.0558693	700.0
2321	6.99590e+02	2.32100e+03	0.0558907	700.0
2322	6.99573e+02	2.32200e+03	0.0559141	700.0
2323	6.99570e+02	2.32300e+03	0.055938	700.0
2324	6.99581e+02	2.32400e+03	0.0559696	700.0
2325	6.99579e+02	2.32500e+03	0.0559951	700.0
2326	6.99574e+02	2.32600e+03	0.0560181	700.0
2327	6.99583e+02	2.32700e+03	0.0560398	700.0
2328	6.99574e+02	2.32800e+03	0.0560541	700.0
2329	6.99575e+02	2.32900e+03	0.056068	700.0
2330	6.99569e+02	2.33000e+03	0.0560789	700.0
2331	6.99565e+02	2.33100e+03	0.0560873	700.0
2332	6.99581e+02	2.33200e+03	0.0560822	700.0
2333	6.99573e+02	2.33300e+03	0.056078	700.0
2334	6.99562e+02	2.33400e+03	0.0560714	700.0
2335	6.99569e+02	2.33500e+03	0.0560627	700.0
2336	6.99574e+02	2.33600e+03	0.0560414	700.0
2337	6.99575e+02	2.33700e+03	0.0560251	700.0
2338	6.99573e+02	2.33800e+03	0.0560092	700.0
2339	6.99571e+02	2.33900e+03	0.0559929	700.0
2340	6.99574e+02	2.34000e+03	0.0559749	700.0
2341	6.99575e+02	2.34100e+03	0.0559602	700.0
2342	6.99575e+02	2.34200e+03	0.0559507	700.0
2343	6.99563e+02	2.34300e+03	0.0559446	700.0
2344	6.99574e+02	2.34400e+03	0.0559444	700.0
2345	6.99577e+02	2.34500e+03	0.0559421	700.0
2346	6.99571e+02	2.34600e+03	0.0559396	700.0
2347	6.99575e+02	2.34700e+03	0.0559373	700.0
2348	6.99574e+02	2.34800e+03	0.0559391	700.0
2349	6.99574e+02	2.34900e+03	0.0559383	700.0
2350	6.99572e+02	2.35000e+03	0.0559369	700.0
2351	6.99570e+02	2.35100e+03	0.0559354	700.0
2352	6.99579e+02	2.35200e+03	0.0559325	700.0
2353	6.99576e+02	2.35300e+03	0.0559306	700.0
2354	6.99571e+02	2.35400e+03	0.0559286	700.0
2355	6.99569e+02	2.35500e+03	0.0559264	700.0
2356	6.99572e+02	2.35600e+03	0.0559232	700.0
2357	6.99572e+02	2.35700e+03	0.0559188	700.0
2358	6.99570e+02	2.35800e+03	0.0559134	700.0
2359	6.99573e+02	2.35900e+03	0.0559073	700.0
2360	6.99577e+02	2.36000e+03	0.0558967	700.0
2361	6.99575e+02	2.36100e+03	0.0558883	700.0
2362	6.99575e+02	2.36200e+03	0.0558832	700.0
2363	6.99574e+02	2.36300e+03	0.0558803	700.0
2364	6.99576e+02	2.36400e+03	0.0558753	700.0
2365	6.99571e+02	2.36500e+03	0.0558683	700.0
2366	6.99576e+02	2.36600e+03	0.0558586	700.0
2367	6.99579e+02	2.36700e+03	0.0558471	700.0
2368	6.99570e+02	2.36800e+03	0.0558296	700.0
2369	6.99568e+02	2.36900e+03	0.0558121	700.0
2370	6.99575e+02	2.37000e+03	0.0557945	700.0
2371	6.99577e+02	2.37100e+03	0.055777	700.0
2372	6.99578e+02	2.37200e+03	0.0557591	700.0
2373	6.99567e+02	2.37300e+03	0.0557485	700.0
2374	6.99568e+02	2.37400e+03	0.0557427	700.0
2375	6.99568e+02	2.37500e+03	0.0557401	700.0
2376	6.99573e+02	2.37600e+03	0.0557567	700.0
2377	6.99577e+02	2.37700e+03	0.0557699	700.0
2378	6.99564e+02	2.37800e+03	0.0557856	700.0
2379	6.99571e+02	2.37900e+03	0.0558036	700.0
2380	6.99572e+02	2.38000e+03	0.0558337	700.0
2381	6.99563e+02	2.38100e+03	0.0558572	700.0
2382	6.99561e+02	2.38200e+03	0.0558786	700.0
2383	6.99572e+02	2.38300e+03	0.055899	700.0
2384	6.99575e+02	2.38400e+03	0.0559138	700.0
2385	6.99574e+02	2.38500e+03	0.0559259	700.0
2386	6.99572e+02	2.38600e+03	0.0559349	700.0
2387	6.99567e+02	2.38700e+03	0.0559416	700.0
2388	6.99578e+02	2.38800e+03	0.055934	700.0
2389	6.99578e+02	2.38900e+03	0.055929	700.0
2390	6.99569e+02	2.39000e+03	0.0559219	700.0
2391	6.99563e+02	2.39100e+03	0.0559126	700.0
2392	6.99572e+02	2.39200e+03	0.0558921	700.0
2393	6.99576e+02	2.39300e+03	0.0558746	700.0
2394	6.99566e+02	2.39400e+03	0.0558572	700.0
2395	6.99562e+02	2.39500e+03	0.0558396	700.0
2396	6.99573e+02	2.39600e+03	0.0558209	700.0
2397	6.99570e+02	2.39700e+03	0.0558069	700.0
2398	6.99565e+02	2.39800e+03	0.0557941	700.0
2399	6.99567e+02	2.39900e+03	0.05578	700.0
2400	6.99567e+02	2.40000e+03	0.0557686	700.0
2401	6.99569e+02	2.40100e+03	0.0557542	700.0
2402	6.99566e+02	2.40200e+03	0.0557399	700.0
2403	6.99570e+02	2.40300e+03	0.0557259	700.0
2404	6.99573e+02	2.40400e+03	0.0557081	700.0
2405	6.99571e+02	2.40500e+03	0.0556973	700.0
2406	6.99566e+02	2.40600e+03	0.0556914	700.0
2407	6.99562e+02	2.40700e+03	0.0556868	700.0
2408	6.99555e+02	2.40800e+03	0.0556929	700.0
2409	6.99565e+02	2.40900e+03	0.0556985	700.0
2410	6.99570e+02	2.41000e+03	0.0557054	700.0
2411	6.99560e+02	2.41100e+03	0.0557125	700.0
2412	6.99571e+02	2.41200e+03	0.0557254	700.0
2413	6.99569e+02	2.41300e+03	0.0557342	700.0
2414	6.99565e+02	2.41400e+03	0.0557419	700.0
2415	6.99561e+02	2.41500e+03	0.0557493	700.0
2416	6.99556e+02	2.41600e+03	0.0557553	700.0
2417	6.99558e+02	2.41700e+03	0.055763	700.0
2418	6.99566e+02	2.41800e+03	0.0557711	700.0
2419	6.99556e+02	2.41900e+03	0.0557792	700.0
2420	6.99551e+02	2.42000e+03	0.0557944	700.0
2421	6.99561e+02	2.42100e+03	0.0558114	700.0
2422	6.99562e+02	2.42200e+03	0.0558286	700.0
2423	6.99557e+02	2.42300e+03	0.0558452	700.0
2424	6.99565e+02	2.42400e+03	0.055864	700.0
2425	6.99564e+02	2.42500e+03	0.0558756	700.0
2426	6.99567e+02	2.42600e+03	0.0558823	700.0
2427	6.99564e+02	2.42700e+03	0.0558861	700.0
2428	6.99555e+02	2.42800e+03	0.0558725	700.0
2429	6.99557e+02	2.42900e+03	0.0558615	700.0
2430	6.99563e+02	2.43000e+03	0.055848	700.0
2431	6.99565e+02	2.43100e+03	0.0558322	700.0
2432	6.99552e+02	2.43200e+03	0.0558043	700.0
2433	6.99553e+02	2.43300e+03	0.0557828	700.0
2434	6.99562e+02	2.43400e+03	0.0557634	700.0
2435	6.99563e+02	2.43500e+03	0.0557451	700.0
2436	6.99562e+02	2.43600e+03	0.055733	700.0
2437	6.99563e+02	2.43700e+03	0.0557243	700.0
2438	6.99560e+02	2.43800e+03	0.0557192	700.0
2439	6.99560e+02	2.43900e+03	0.0557165	700.0
2440	6.99558e+02	2.44000e+03	0.0557284	700.0
2441	6.99561e+02	2.44100e+03	0.0557348	700.0
2442	6.99558e+02	2.44200e+03	0.055741	700.0
2443	6.99561e+02	2.44300e+03	0.0557484	700.0
2444	6.99560e+02	2.44400e+03	0.0557632	700.0
2445	6.99562e+02	2.44500e+03	0.0557762	700.0
2446	6.99556e+02	2.44600e+03	0.0557878	700.0
2447	6.99560e+02	2.44700e+03	0.0557984	700.0
2448	6.99555e+02	2.44800e+03	0.0558094	700.0
2449	6.99556e+02	2.44900e+03	0.0558173	700.0
2450	6.99558e+02	2.45000e+03	0.0558231	700.0
2451	6.99557e+02	2.45100e+03	0.0558279	700.0
2452	6.99567e+02	2.45200e+03	0.0558257	700.0
2453	6.99565e+02	2.45300e+03	0.0558262	700.0
2454	6.99565e+02	2.45400e+03	0.0558269	700.0
2455	6.99558e+02	2.45500e+03	0.0558273	700.0
2456	6.99567e+02	2.45600e+03	0.0558263	700.0
2457	6.99556e+02	2.45700e+03	0.055826	700.0
2458	6.99562e+02	2.45800e+03	0.0558258	700.0
2459	6.99564e+02	2.45900e+03	0.0558256	700.0
2460	6.99566e+02	2.46000e+03	0.0558318	700.0
2461	6.99558e+02	2.46100e+03	0.0558414	700.0
2462	6.99565e+02	2.46200e+03	0.0558519	700.0
2463	6.99559e+02	2.46300e+03	0.0558627	700.0
2464	6.99568e+02	2.46400e+03	0.0558796	700.0
2465	6.99562e+02	2.46500e+03	0.0558887	700.0
2466	6.99552e+02	2.46600e+03	0.0558914	700.0
2467	6.99561e+02	2.46700e+03	0.0558891	700.0
2468	6.99565e+02	2.46800e+03	0.05587	700.0
2469	6.99565e+02	2.46900e+03	0.0558542	700.0
2470	6.99562e+02	2.47000e+03	0.0558391	700.0
2471	6.99555e+02	2.47100e+03	0.0558258	700.0
2472	6.99564e+02	2.47200e+03	0.0558093	700.0
2473	6.99566e+02	2.47300e+03	0.0558004	700.0
2474	6.99561e+02	2.47400e+03	0.0557936	700.0
2475	6.99561e+02	2.47500e+03	0.0557873	700.0
2476	6.99558e+02	2.47600e+03	0.0557933	700.0
2477	6.99562e+02	2.47700e+03	0.0557906	700.0
2478	6.99565e+02	2.47800e+03	0.0557863	700.0
2479	6.99554e+02	2.47900e+03	0.055782	700.0
2480	6.99557e+02	2.48000e+03	0.0557745	700.0
2481	6.99565e+02	2.48100e+03	0.0557712	700.0
2482	6.99565e+02	2.48200e+03	0.0557693	700.0
2483	6.99563e+02	2.48300e+03	0.0557678	700.0
2484	6.99567e+02	2.48400e+03	0.055771	700.0
2485	6.99566e+02	2.48500e+03	0.0557713	700.0
2486	6.99568e+02	2.48600e+03	0.0557706	700.0
2487	6.99569e+02	2.48700e+03	0.0557696	700.0
2488	6.99573e+02	2.48800e+03	0.0557659	700.0
2489	6.99561e+02	2.48900e+03	0.0557621	700.0
2490	6.99569e+02	2.49000e+03	0.0557579	700.0
2491	6.99566e+02	2.49100e+03	0.0557534	700.0
2492	6.99559e+02	2.49200e+03	0.0557469	700.0
2493	6.99560e+02	2.49300e+03	0.0557421	700.0
2494	6.99562e+02	2.49400e+03	0.0557381	700.0
2495	6.99565e+02	2.49500e+03	0.0557343	700.0
2496	6.99558e+02	2.49600e+03	0.0557326	700.0
2497	6.99558e+02	2.49700e+03	0.0557305	700.0
2498	6.99558e+02	2.49800e+03	0.0557285	700.0
2499	6.99560e+02	2.49900e+03	0.0557264	700.0
2500	6.99562e+02	2.50000e+03	0.055724	700.0
2501	6.99565e+02	2.50100e+03	0.0557201	700.0
2502	6.99555e+02	2.50200e+03	0.0557151	700.0
2503	6.99560e+02	2.50300e+03	0.0557095	700.0
2504	6.99558e+02	2.50400e+03	0.0556994	700.0
2505	6.99571e+02	2.50500e+03	0.0556902	700.0
2506	6.99557e+02	2.50600e+03	0.055681	700.0
2507	6.99562e+02	2.50700e+03	0.0556717	700.0
2508	6.99565e+02	2.50800e+03	0.0556672	700.0
2509	6.99567e+02	2.50900e+03	0.0556683	700.0
2510	6.99561e+02	2.51000e+03	0.0556722	700.0
2511	6.99564e+02	2.51100e+03	0.0556773	700.0
2512	6.99559e+02	2.51200e+03	0.0556953	700.0
2513	6.99571e+02	2.51300e+03	0.0557074	700.0
2514	6.99555e+02	2.51400e+03	0.0557187	700.0
2515	6.99559e+02	2.51500e+03	0.0557301	700.0
2516	6.99560e+02	2.51600e+03	0.0557344	700.0
2517	6.99561e+02	2.51700e+03	0.0557341	700.0
2518	6.99554e+02	2.51800e+03	0.0557315	700.0
2519	6.99562e+02	2.51900e+03	0.0557275	700.0
2520	6.99566e+02	2.52000e+03	0.0557097	700.0
2521	6.99565e+02	2.52100e+03	0.0556979	700.0
2522	6.99566e+02	2.52200e+03	0.0556871	700.0
2523	6.99566e+02	2.52300e+03	0.0556763	700.0
2524	6.99560e+02	2.52400e+03	0.0556658	700.0
2525	6.99566e+02	2.52500e+03	0.0556568	700.0
2526	6.99556e+02	2.52600e+03	0.055649	700.0
2527	6.99558e+02	2.52700e+03	0.0556419	700.0
2528	6.99564e+02	2.52800e+03	0.0556392	700.0
2529	6.99564e+02	2.52900e+03	0.0556355	700.0
2530	6.99567e+02	2.53000e+03	0.055632	700.0
2531	6.99566e+02	2.53100e+03	0.0556287	700.0
2532	6.99549e+02	2.53200e+03	0.0556265	700.0
2533	6.99569e+02	2.53300e+03	0.0556225	700.0
2534	6.99566e+02	2.53400e+03	0.0556174	700.0
2535	6.99563e+02	2.53500e+03	0.0556117	700.0
2536	6.99566e+02	2.53600e+03	0.0556021	700.0
2537	6.99563e+02	2.53700e+03	0.0555932	700.0
2538	6.99564e+02	2.53800e+03	0.055584	700.0
2539	6.99561e+02	2.53900e+03	0.0555746	700.0
2540	6.99561e+02	2.54000e+03	0.055564	700.0
2541	6.99564e+02	2.54100e+03	0.0555556	700.0
2542	6.99575e+02	2.54200e+03	0.0555482	700.0
2543	6.99556e+02	2.54300e+03	0.0555414	700.0
2544	6.99552e+02	2.54400e+03	0.0555386	700.0
2545	6.99562e+02	2.54500e+03	0.0555348	700.0
2546	6.99566e+02	2.54600e+03	0.055531	700.0
2547	6.99558e+02	2.54700e+03	0.0555271	700.0
2548	6.99557e+02	2.54800e+03	0.0555241	700.0
2549	6.99563e+02	2.54900e+03	0.0555201	700.0
2550	6.99564e+02	2.55000e+03	0.0555166	700.0
2551	6.99558e+02	2.55100e+03	0.0555136	700.0
2552	6.99551e+02	2.55200e+03	0.0555125	700.0
2553	6.99558e+02	2.55300e+03	0.0555142	700.0
2554	6.99561e+02	2.55400e+03	0.0555188	700.0
2555	6.99564e+02	2.55500e+03	0.0555255	700.0
2556	6.99551e+02	2.55600e+03	0.0555435	700.0
2557	6.99565e+02	2.55700e+03	0.0555629	700.0
2558	6.99566e+02	2.55800e+03	0.0555862	700.0
2559	6.99554e+02	2.55900e+03	0.055611	700.0
2560	6.99554e+02	2.56000e+03	0.0556422	700.0
2561	6.99564e+02	2.56100e+03	0.0556653	700.0
2562	6.99568e+02	2.56200e+03	0.0556842	700.0
2563	6.99562e+02	2.56300e+03	0.0557005	700.0
2564	6.99564e+02	2.56400e+03	0.0557028	700.0
2565	6.99558e+02	2.56500e+03	0.0557047	700.0
2566	6.99570e+02	2.56600e+03	0.0557021	700.0
2567	6.99562e+02	2.56700e+03	0.0556961	700.0
2568	6.99557e+02	2.56800e+03	0.0556702	700.0
2569	6.99564e+02	2.56900e+03	0.0556487	700.0
2570	6.99561e+02	2.57000e+03	0.0556261	700.0
2571	6.99560e+02	2.57100e+03	0.0556021	700.0
2572	6.99561e+02	2.57200e+03	0.0555694	700.0
2573	6.99562e+02	2.57300e+03	0.0555431	700.0
2574	6.99559e+02	2.57400e+03	0.0555188	700.0
2575	6.99559e+02	2.57500e+03	0.0554951	700.0
2576	6.99552e+02	2.57600e+03	0.055477	700.0
2577	6.99564e+02	2.57700e+03	0.0554582	700.0
2578	6.99560e+02	2.57800e+03	0.0554407	700.0
2579	6.99560e+02	2.57900e+03	0.0554246	700.0
2580	6.99557e+02	2.58000e+03	0.0554152	700.0
2581	6.99564e+02	2.58100e+03	0.0554058	700.0
2582	6.99552e+02	2.58200e+03	0.0553988	700.0
2583	6.99559e+02	2.58300e+03	0.0553936	700.0
2584	6.99556e+02	2.58400e+03	0.0554001	700.0
2585	6.99563e+02	2.58500e+03	0.0554064	700.0
2586	6.99561e+02	2.58600e+03	0.0554155	700.0
2587	6.99563e+02	2.58700e+03	0.0554269	700.0
2588	6.99563e+02	2.58800e+03	0.0554511	700.0
2589	6.99558e+02	2.58900e+03	0.0554723	700.0
2590	6.99562e+02	2.59000e+03	0.0554969	700.0
2591	6.99557e+02	2.59100e+03	0.0555242	700.0
2592	6.99558e+02	2.59200e+03	0.0555543	700.0
2593	6.99561e+02	2.59300e+03	0.0555784	700.0
2594	6.99567e+02	2.59400e+03	0.0555987	700.0
2595	6.99559e+02	2.59500e+03	0.0556168	700.0
2596	6.99561e+02	2.59600e+03	0.0556242	700.0
2597	6.99562e+02	2.59700e+03	0.0556319	700.0
2598	6.99555e+02	2.59800e+03	0.0556355	700.0
2599	6.99560e+02	2.59900e+03	0.0556344	700.0
2600	6.99565e+02	2.60000e+03	0.055614	700.0
2601	6.99560e+02	2.60100e+03	0.055598	700.0
2602	6.99557e+02	2.60200e+03	0.0555815	700.0
2603	6.99555e+02	2.60300e+03	0.0555642	700.0
2604	6.99561e+02	2.60400e+03	0.0555357	700.0
2605	6.99553e+02	2.60500e+03	0.0555149	700.0
2606	6.99559e+02	2.60600e+03	0.0554967	700.0
2607	6.99560e+02	2.60700e+03	0.0554795	700.0
2608	6.99552e+02	2.60800e+03	0.0554768	700.0
2609	6.99560e+02	2.60900e+03	0.0554761	700.0
2610	6.99559e+02	2.61000e+03	0.0554775	700.0
2611	6.99551e+02	2.61100e+03	0.0554801	700.0
2612	6.99555e+02	2.61200e+03	0.0554977	700.0
2613	6.99561e+02	2.61300e+03	0.0555082	700.0
2614	6.99560e+02	2.61400e+03	0.0555194	700.0
2615	6.99562e+02	2.61500e+03	0.0555337	700.0
2616	6.99561e+02	2.61600e+03	0.0555554	700.0
2617	6.99555e+02	2.61700e+03	0.0555766	700.0
2618	6.99563e+02	2.61800e+03	0.0555967	700.0
2619	6.99566e+02	2.61900e+03	0.055616	700.0
2620	6.99566e+02	2.62000e+03	0.0556381	700.0
2621	6.99571e+02	2.62100e+03	0.0556522	700.0
2622	6.99562e+02	2.62200e+03	0.0556617	700.0
2623	6.99557e+02	2.62300e+03	0.0556688	700.0
2624	6.99550e+02	2.62400e+03	0.0556582	700.0
2625	6.99564e+02	2.62500e+03	0.0556523	700.0
2626	6.99565e+02	2.62600e+03	0.0556444	700.0
2627	6.99564e+02	2.62700e+03	0.0556344	700.0
2628	6.99565e+02	2.62800e+03	0.0556143	700.0
2629	6.99572e+02	2.62900e+03	0.0555974	700.0
2630	6.99559e+02	2.63000e+03	0.0555812	700.0
2631	6.99566e+02	2.63100e+03	0.0555651	700.0
2632	6.99558e+02	2.63200e+03	0.0555488	700.0
2633	6.99558e+02	2.63300e+03	0.0555364	700.0
2634	6.99562e+02	2.63400e+03	0.0555264	700.0
2635	6.99566e+02	2.63500e+03	0.0555179	700.0
2636	6.99559e+02	2.63600e+03	0.0555194	700.0
2637	6.99559e+02	2.63700e+03	0.0555191	700.0
2638	6.99551e+02	2.63800e+03	0.0555209	700.0
2639	6.99553e+02	2.63900e+03	0.0555248	700.0
2640	6.99557e+02	2.64000e+03	0.0555385	700.0
2641	6.99562e+02	2.64100e+03	0.0555512	700.0
2642	6.99562e+02	2.64200e+03	0.0555654	700.0
2643	6.99552e+02	2.64300e+03	0.0555809	700.0
2644	6.99555e+02	2.64400e+03	0.0556032	700.0
2645	6.99563e+02	2.64500e+03	0.0556205	700.0
2646	6.99562e+02	2.64600e+03	0.0556354	700.0
2647	6.99559e+02	2.64700e+03	0.0556489	700.0
2648	6.99555e+02	2.64800e+03	0.0556535	700.0
2649	6.99565e+02	2.64900e+03	0.0556561	700.0
2650	6.99557e+02	2.65000e+03	0.0556554	700.0
2651	6.99564e+02	2.65100e+03	0.0556523	700.0
2652	6.99561e+02	2.65200e+03	0.0556348	700.0
2653	6.99556e+02	2.65300e+03	0.0556231	700.0
2654	6.99555e+02	2.65400e+03	0.0556117	700.0
2655	6.99565e+02	2.65500e+03	0.0555989	700.0
2656	6.99565e+02	2.65600e+03	0.0555797	700.0
2657	6.99559e+02	2.65700e+03	0.055563	700.0
2658	6.99565e+02	2.65800e+03	0.055548	700.0
2659	6.99562e+02	2.65900e+03	0.055534	700.0
2660	6.99571e+02	2.66000e+03	0.0555206	700.0
2661	6.99563e+02	2.66100e+03	0.0555103	700.0
2662	6.99558e+02	2.66200e+03	0.0555032	700.0
2663	6.99565e+02	2.66300e+03	0.0554992	700.0
2664	6.99564e+02	2.66400e+03	0.0555126	700.0
2665	6.99552e+02	2.66500e+03	0.0555262	700.0
2666	6.99560e+02	2.66600e+03	0.0555417	700.0
2667	6.99563e+02	2.66700e+03	0.0555588	700.0
2668	6.99567e+02	2.66800e+03	0.0555916	700.0
2669	6.99557e+02	2.66900e+03	0.0556152	700.0
2670	6.99561e+02	2.67000e+03	0.0556362	700.0
2671	6.99561e+02	2.67100e+03	0.0556563	700.0
2672	6.99568e+02	2.67200e+03	0.055669	700.0
2673	6.99561e+02	2.67300e+03	0.0556806	700.0
2674	6.99568e+02	2.67400e+03	0.0556887	700.0
2675	6.99556e+02	2.67500e+03	0.0556941	700.0
2676	6.99558e+02	2.67600e+03	0.055685	700.0
2677	6.99561e+02	2.67700e+03	0.0556776	700.0
2678	6.99562e+02	2.67800e+03	0.0556682	700.0
2679	6.99563e+02	2.67900e+03	0.0556569	700.0
2680	6.99566e+02	2.68000e+03	0.0556346	700.0
2681	6.99563e+02	2.68100e+03	0.0556177	700.0
2682	6.99558e+02	2.68200e+03	0.055602	700.0
2683	6.99564e+02	2.68300e+03	0.0555867	700.0
2684	6.99559e+02	2.68400e+03	0.0555736	700.0
2685	6.99562e+02	2.68500e+03	0.0555621	700.0
2686	6.99574e+02	2.68600e+03	0.055552	700.0
2687	6.99571e+02	2.68700e+03	0.055543	700.0
2688	6.99558e+02	2.68800e+03	0.0555336	700.0
2689	6.99566e+02	2.68900e+03	0.0555192	700.0
2690	6.99565e+02	2.69000e+03	0.0555045	700.0
2691	6.99564e+02	2.69100e+03	0.0554902	700.0
2692	6.99567e+02	2.69200e+03	0.0554716	700.0
2693	6.99568e+02	2.69300e+03	0.0554584	700.0
2694	6.99569e+02	2.69400e+03	0.0554479	700.0
2695	6.99568e+02	2.69500e+03	0.0554388	700.0
2696	6.99561e+02	2.69600e+03	0.0554396	700.0
2697	6.99557e+02	2.69700e+03	0.0554388	700.0
2698	6.99560e+02	2.69800e+03	0.0554397	700.0
2699	6.99565e+02	2.69900e+03	0.0554419	700.0
2700	6.99559e+02	2.70000e+03	0.0554525	700.0
2701	6.99563e+02	2.70100e+03	0.0554607	700.0
2702	6.99567e+02	2.70200e+03	0.055469	700.0
2703	6.99574e+02	2.70300e+03	0.0554776	700.0
2704	6.99560e+02	2.70400e+03	0.0554882	700.0
2705	6.99565e+02	2.70500e+03	0.0554963	700.0
2706	6.99568e+02	2.70600e+03	0.055503	700.0
2707	6.99570e+02	2.70700e+03	0.0555088	700.0
2708	6.99559e+02	2.70800e+03	0.0555097	700.0
2709	6.99570e+02	2.70900e+03	0.0555132	700.0
2710	6.99569e+02	2.71000e+03	0.0555194	700.0
2711	6.99572e+02	2.71100e+03	0.0555265	700.0
2712	6.99565e+02	2.71200e+03	0.0555323	700.0
2713	6.99563e+02	2.71300e+03	0.0555362	700.0
2714	6.99565e+02	2.71400e+03	0.0555388	700.0
2715	6.99560e+02	2.71500e+03	0.0555421	700.0
2716	6.99569e+02	2.71600e+03	0.0555485	700.0
2717	6.99566e+02	2.71700e+03	0.0555558	700.0
2718	6.99564e+02	2.71800e+03	0.0555618	700.0
2719	6.99563e+02	2.71900e+03	0.0555648	700.0
2720	6.99566e+02	2.72000e+03	0.0555662	700.0
