Index	Ts	t	Weight	Tr
[#]	[°C]	[s]	[mg]	[°C]
681	1.30102e+02	6.81000e+02	2.96888	130.5
682	1.30604e+02	6.82000e+02	2.96888	131.0
683	1.31100e+02	6.83000e+02	2.96887	131.5
684	1.31607e+02	6.84000e+02	2.96886	132.0
685	1.32102e+02	6.85000e+02	2.96885	132.5
686	1.32616e+02	6.86000e+02	2.96883	133.0
687	1.33103e+02	6.87000e+02	2.9688	133.5
688	1.33602e+02	6.88000e+02	2.96876	134.0
689	1.34120e+02	6.89000e+02	2.96872	134.5
690	1.34612e+02	6.90000e+02	2.96868	135.0
691	1.35128e+02	6.91000e+02	2.96863	135.5
692	1.35607e+02	6.92000e+02	2.96856	136.0
693	1.36114e+02	6.93000e+02	2.96851	136.5
694	1.36623e+02	6.94000e+02	2.96845	137.0
695	1.37128e+02	6.95000e+02	2.96838	137.5
696	1.37637e+02	6.96000e+02	2.96831	138.0
697	1.38141e+02	6.97000e+02	2.96825	138.5
698	1.38649e+02	6.98000e+02	2.96818	139.0
699	1.39133e+02	6.99000e+02	2.96811	139.5
700	1.39651e+02	7.00000e+02	2.96803	140.0
701	1.40146e+02	7.01000e+02	2.96796	140.5
702	1.40650e+02	7.02000e+02	2.96789	141.0
703	1.41152e+02	7.03000e+02	2.96781	141.5
704	1.41657e+02	7.04000e+02	2.96773	142.0
705	1.42173e+02	7.05000e+02	2.96765	142.5
706	1.42669e+02	7.06000e+02	2.96756	143.0
707	1.43171e+02	7.07000e+02	2.96746	143.5
708	1.43691e+02	7.08000e+02	2.96735	144.0
709	1.44196e+02	7.09000e+02	2.96723	144.5
710	1.44699e+02	7.10000e+02	2.96711	145.0
711	1.45208e+02	7.11000e+02	2.96698	145.5
712	1.45705e+02	7.12000e+02	2.96683	146.0
713	1.46224e+02	7.13000e+02	2.96668	146.5
714	1.46730e+02	7.14000e+02	2.96653	147.0
715	1.47229e+02	7.15000e+02	2.96638	147.5
716	1.47741e+02	7.16000e+02	2.96621	148.0
717	1.48249e+02	7.17000e+02	2.96605	148.5
718	1.48751e+02	7.18000e+02	2.96589	149.0
719	1.49262e+02	7.19000e+02	2.96573	149.5
720	1.49771e+02	7.20000e+02	2.96557	150.0
721	1.50267e+02	7.21000e+02	2.96541	150.5
722	1.50781e+02	7.22000e+02	2.96526	151.0
723	1.51281e+02	7.23000e+02	2.96511	151.5
724	1.51785e+02	7.24000e+02	2.96496	152.0
725	1.52281e+02	7.25000e+02	2.9648	152.5
726	1.52787e+02	7.26000e+02	2.96463	153.0
727	1.53301e+02	7.27000e+02	2.96446	153.5
728	1.53795e+02	7.28000e+02	2.96425	154.0
729	1.54306e+02	7.29000e+02	2.96406	154.5
730	1.54812e+02	7.30000e+02	2.96386	155.0
731	1.55316e+02	7.31000e+02	2.96366	155.5
732	1.55829e+02	7.32000e+02	2.96345	156.0
733	1.56330e+02	7.33000e+02	2.96323	156.5
734	1.56831e+02	7.34000e+02	2.96302	157.0
735	1.57342e+02	7.35000e+02	2.9628	157.5
736	1.57848e+02	7.36000e+02	2.96257	158.0
737	1.58350e+02	7.37000e+02	2.96234	158.5
738	1.58857e+02	7.38000e+02	2.96211	159.0
739	1.59364e+02	7.39000e+02	2.96187	159.5
740	1.59869e+02	7.40000e+02	2.96162	160.0
741	1.60375e+02	7.41000e+02	2.96138	160.5
742	1.60874e+02	7.42000e+02	2.96114	161.0
743	1.61376e+02	7.43000e+02	2.96089	161.5
744	1.61889e+02	7.44000e+02	2.96063	162.0
745	1.62390e+02	7.45000e+02	2.96038	162.5
746	1.62911e+02	7.46000e+02	2.96011	163.0
747	1.63415e+02	7.47000e+02	2.95984	163.5
748	1.63920e+02	7.48000e+02	2.95955	164.0
749	1.64415e+02	7.49000e+02	2.95927	164.5
750	1.64926e+02	7.50000e+02	2.95898	165.0
751	1.65431e+02	7.51000e+02	2.95869	165.5
752	1.65937e+02	7.52000e+02	2.95838	166.0
753	1.66434e+02	7.53000e+02	2.95807	166.5
754	1.66940e+02	7.54000e+02	2.95776	167.0
755	1.67447e+02	7.55000e+02	2.95745	167.5
756	1.67961e+02	7.56000e+02	2.95711	168.0
757	1.68470e+02	7.57000e+02	2.95677	168.5
758	1.68974e+02	7.58000e+02	2.95643	169.0
759	1.69476e+02	7.59000e+02	2.95607	169.5
760	1.69992e+02	7.60000e+02	2.95568	170.0
761	1.70492e+02	7.61000e+02	2.9553	170.5
762	1.71006e+02	7.62000e+02	2.95491	171.0
763	1.71512e+02	7.63000e+02	2.95452	171.5
764	1.72009e+02	7.64000e+02	2.95409	172.0
765	1.72527e+02	7.65000e+02	2.95367	172.5
766	1.73033e+02	7.66000e+02	2.95324	173.0
767	1.73546e+02	7.67000e+02	2.95281	173.5
768	1.74039e+02	7.68000e+02	2.95233	174.0
769	1.74544e+02	7.69000e+02	2.95185	174.5
770	1.75061e+02	7.70000e+02	2.95135	175.0
771	1.75563e+02	7.71000e+02	2.95085	175.5
772	1.76063e+02	7.72000e+02	2.95028	176.0
773	1.76578e+02	7.73000e+02	2.9497	176.5
774	1.77094e+02	7.74000e+02	2.94911	177.0
775	1.77598e+02	7.75000e+02	2.9485	177.5
776	1.78095e+02	7.76000e+02	2.9478	178.0
777	1.78593e+02	7.77000e+02	2.94711	178.5
778	1.79111e+02	7.78000e+02	2.9464	179.0
779	1.79626e+02	7.79000e+02	2.94566	179.5
780	1.80118e+02	7.80000e+02	2.94483	180.0
781	1.80624e+02	7.81000e+02	2.94401	180.5
782	1.81143e+02	7.82000e+02	2.94316	181.0
783	1.81648e+02	7.83000e+02	2.94229	181.5
784	1.82161e+02	7.84000e+02	2.94131	182.0
785	1.82663e+02	7.85000e+02	2.94035	182.5
786	1.83165e+02	7.86000e+02	2.93936	183.0
787	1.83682e+02	7.87000e+02	2.93835	183.5
788	1.84181e+02	7.88000e+02	2.93724	184.0
789	1.84690e+02	7.89000e+02	2.93614	184.5
790	1.85195e+02	7.90000e+02	2.93502	185.0
791	1.85700e+02	7.91000e+02	2.93387	185.5
792	1.86215e+02	7.92000e+02	2.93262	186.0
793	1.86715e+02	7.93000e+02	2.93139	186.5
794	1.87234e+02	7.94000e+02	2.93013	187.0
795	1.87741e+02	7.95000e+02	2.92884	187.5
796	1.88250e+02	7.96000e+02	2.92745	188.0
797	1.88741e+02	7.97000e+02	2.92608	188.5
798	1.89270e+02	7.98000e+02	2.92469	189.0
799	1.89764e+02	7.99000e+02	2.92328	189.5
800	1.90277e+02	8.00000e+02	2.92178	190.0
801	1.90793e+02	8.01000e+02	2.92029	190.5
802	1.91296e+02	8.02000e+02	2.91878	191.0
803	1.91818e+02	8.03000e+02	2.91726	191.5
804	1.92319e+02	8.04000e+02	2.91567	192.0
805	1.92823e+02	8.05000e+02	2.91409	192.5
806	1.93327e+02	8.06000e+02	2.91251	193.0
807	1.93834e+02	8.07000e+02	2.91093	193.5
808	1.94340e+02	8.08000e+02	2.9093	194.0
809	1.94847e+02	8.09000e+02	2.90769	194.5
810	1.95355e+02	8.10000e+02	2.90607	195.0
811	1.95850e+02	8.11000e+02	2.90444	195.5
812	1.96370e+02	8.12000e+02	2.9028	196.0
813	1.96878e+02	8.13000e+02	2.90116	196.5
814	1.97379e+02	8.14000e+02	2.89952	197.0
815	1.97889e+02	8.15000e+02	2.89788	197.5
816	1.98394e+02	8.16000e+02	2.89625	198.0
817	1.98906e+02	8.17000e+02	2.89463	198.5
818	1.99422e+02	8.18000e+02	2.89303	199.0
819	1.99922e+02	8.19000e+02	2.89145	199.5
820	2.00444e+02	8.20000e+02	2.88993	200.0
821	2.00962e+02	8.21000e+02	2.88841	200.5
822	2.01463e+02	8.22000e+02	2.88692	201.0
823	2.01968e+02	8.23000e+02	2.88544	201.5
824	2.02479e+02	8.24000e+02	2.88407	202.0
825	2.02998e+02	8.25000e+02	2.88268	202.5
826	2.03505e+02	8.26000e+02	2.88132	203.0
827	2.04018e+02	8.27000e+02	2.87998	203.5
828	2.04521e+02	8.28000e+02	2.87874	204.0
829	2.05039e+02	8.29000e+02	2.8775	204.5
830	2.05555e+02	8.30000e+02	2.87628	205.0
831	2.06056e+02	8.31000e+02	2.87508	205.5
832	2.06576e+02	8.32000e+02	2.87399	206.0
833	2.07091e+02	8.33000e+02	2.8729	206.5
834	2.07608e+02	8.34000e+02	2.87183	207.0
835	2.08118e+02	8.35000e+02	2.87079	207.5
836	2.08621e+02	8.36000e+02	2.86987	208.0
837	2.09141e+02	8.37000e+02	2.86895	208.5
838	2.09659e+02	8.38000e+02	2.86805	209.0
839	2.10158e+02	8.39000e+02	2.86718	209.5
840	2.10675e+02	8.40000e+02	2.86644	210.0
841	2.11190e+02	8.41000e+02	2.86568	210.5
842	2.11707e+02	8.42000e+02	2.86495	211.0
843	2.12216e+02	8.43000e+02	2.86423	211.5
844	2.12737e+02	8.44000e+02	2.86364	212.0
845	2.13276e+02	8.45000e+02	2.86301	212.5
846	2.13793e+02	8.46000e+02	2.86241	213.0
847	2.14315e+02	8.47000e+02	2.86182	213.5
848	2.14824e+02	8.48000e+02	2.86132	214.0
849	2.15345e+02	8.49000e+02	2.8608	214.5
850	2.15863e+02	8.50000e+02	2.86029	215.0
851	2.16390e+02	8.51000e+02	2.85979	215.5
852	2.16905e+02	8.52000e+02	2.85934	216.0
853	2.17420e+02	8.53000e+02	2.85889	216.5
854	2.17937e+02	8.54000e+02	2.85844	217.0
855	2.18450e+02	8.55000e+02	2.85801	217.5
856	2.18965e+02	8.56000e+02	2.85762	218.0
857	2.19479e+02	8.57000e+02	2.85721	218.5
858	2.20009e+02	8.58000e+02	2.85682	219.0
859	2.20532e+02	8.59000e+02	2.85642	219.5
860	2.21027e+02	8.60000e+02	2.85606	220.0
861	2.21544e+02	8.61000e+02	2.85568	220.5
862	2.22064e+02	8.62000e+02	2.85531	221.0
863	2.22572e+02	8.63000e+02	2.85495	221.5
864	2.23086e+02	8.64000e+02	2.8546	222.0
865	2.23601e+02	8.65000e+02	2.85424	222.5
866	2.24099e+02	8.66000e+02	2.85389	223.0
867	2.24607e+02	8.67000e+02	2.85353	223.5
868	2.25121e+02	8.68000e+02	2.85319	224.0
869	2.25617e+02	8.69000e+02	2.85284	224.5
870	2.26145e+02	8.70000e+02	2.85248	225.0
871	2.26647e+02	8.71000e+02	2.85213	225.5
872	2.27165e+02	8.72000e+02	2.85178	226.0
873	2.27661e+02	8.73000e+02	2.85143	226.5
874	2.28180e+02	8.74000e+02	2.85109	227.0
875	2.28688e+02	8.75000e+02	2.85074	227.5
876	2.29186e+02	8.76000e+02	2.8504	228.0
877	2.29700e+02	8.77000e+02	2.85006	228.5
878	2.30207e+02	8.78000e+02	2.84972	229.0
879	2.30714e+02	8.79000e+02	2.84938	229.5
880	2.31217e+02	8.80000e+02	2.84904	230.0
881	2.31712e+02	8.81000e+02	2.84869	230.5
882	2.32219e+02	8.82000e+02	2.84834	231.0
883	2.32725e+02	8.83000e+02	2.84798	231.5
884	2.33238e+02	8.84000e+02	2.8476	232.0
885	2.33756e+02	8.85000e+02	2.84723	232.5
886	2.34260e+02	8.86000e+02	2.84686	233.0
887	2.34769e+02	8.87000e+02	2.8465	233.5
888	2.35288e+02	8.88000e+02	2.84613	234.0
889	2.35798e+02	8.89000e+02	2.84578	234.5
890	2.36306e+02	8.90000e+02	2.84543	235.0
891	2.36819e+02	8.91000e+02	2.84509	235.5
892	2.37314e+02	8.92000e+02	2.84476	236.0
893	2.37842e+02	8.93000e+02	2.84442	236.5
894	2.38360e+02	8.94000e+02	2.84408	237.0
895	2.38855e+02	8.95000e+02	2.84373	237.5
896	2.39367e+02	8.96000e+02	2.84336	238.0
897	2.39881e+02	8.97000e+02	2.843	238.5
898	2.40386e+02	8.98000e+02	2.84263	239.0
899	2.40896e+02	8.99000e+02	2.84226	239.5
900	2.41416e+02	9.00000e+02	2.84187	240.0
901	2.41928e+02	9.01000e+02	2.84148	240.5
902	2.42446e+02	9.02000e+02	2.84111	241.0
903	2.42977e+02	9.03000e+02	2.84074	241.5
904	2.43493e+02	9.04000e+02	2.84038	242.0
905	2.44008e+02	9.05000e+02	2.84003	242.5
906	2.44538e+02	9.06000e+02	2.83968	243.0
907	2.45043e+02	9.07000e+02	2.83935	243.5
908	2.45559e+02	9.08000e+02	2.83904	244.0
909	2.46064e+02	9.09000e+02	2.83872	244.5
910	2.46570e+02	9.10000e+02	2.8384	245.0
911	2.47091e+02	9.11000e+02	2.83809	245.5
912	2.47606e+02	9.12000e+02	2.8378	246.0
913	2.48105e+02	9.13000e+02	2.83751	246.5
914	2.48626e+02	9.14000e+02	2.83723	247.0
915	2.49141e+02	9.15000e+02	2.83696	247.5
916	2.49645e+02	9.16000e+02	2.83672	248.0
917	2.50153e+02	9.17000e+02	2.83648	248.5
918	2.50680e+02	9.18000e+02	2.83623	249.0
919	2.51193e+02	9.19000e+02	2.83599	249.5
920	2.51706e+02	9.20000e+02	2.83575	250.0
921	2.52220e+02	9.21000e+02	2.83549	250.5
922	2.52732e+02	9.22000e+02	2.83523	251.0
923	2.53250e+02	9.23000e+02	2.83497	251.5
924	2.53780e+02	9.24000e+02	2.83468	252.0
925	2.54324e+02	9.25000e+02	2.83441	252.5
926	2.54856e+02	9.26000e+02	2.83414	253.0
927	2.55370e+02	9.27000e+02	2.83388	253.5
928	2.55882e+02	9.28000e+02	2.83363	254.0
929	2.56391e+02	9.29000e+02	2.83338	254.5
930	2.56924e+02	9.30000e+02	2.83312	255.0
931	2.57471e+02	9.31000e+02	2.83287	255.5
932	2.58000e+02	9.32000e+02	2.83262	256.0
933	2.58497e+02	9.33000e+02	2.83236	256.5
934	2.59012e+02	9.34000e+02	2.8321	257.0
935	2.59540e+02	9.35000e+02	2.83184	257.5
936	2.60085e+02	9.36000e+02	2.83158	258.0
937	2.60579e+02	9.37000e+02	2.83133	258.5
938	2.61104e+02	9.38000e+02	2.83108	259.0
939	2.61614e+02	9.39000e+02	2.83084	259.5
940	2.62133e+02	9.40000e+02	2.83063	260.0
941	2.62647e+02	9.41000e+02	2.83042	260.5
942	2.63139e+02	9.42000e+02	2.83021	261.0
943	2.63662e+02	9.43000e+02	2.83001	261.5
944	2.64165e+02	9.44000e+02	2.82982	262.0
945	2.64680e+02	9.45000e+02	2.82963	262.5
946	2.65192e+02	9.46000e+02	2.82943	263.0
947	2.65715e+02	9.47000e+02	2.82922	263.5
948	2.66224e+02	9.48000e+02	2.829	264.0
949	2.66738e+02	9.49000e+02	2.82878	264.5
950	2.67256e+02	9.50000e+02	2.82855	265.0
951	2.67769e+02	9.51000e+02	2.82831	265.5
952	2.68283e+02	9.52000e+02	2.82804	266.0
953	2.68800e+02	9.53000e+02	2.82777	266.5
954	2.69306e+02	9.54000e+02	2.82748	267.0
955	2.69818e+02	9.55000e+02	2.8272	267.5
956	2.70326e+02	9.56000e+02	2.82687	268.0
957	2.70840e+02	9.57000e+02	2.82656	268.5
958	2.71336e+02	9.58000e+02	2.82625	269.0
959	2.71857e+02	9.59000e+02	2.82593	269.5
960	2.72363e+02	9.60000e+02	2.8256	270.0
961	2.72876e+02	9.61000e+02	2.82529	270.5
962	2.73393e+02	9.62000e+02	2.82497	271.0
963	2.73905e+02	9.63000e+02	2.82466	271.5
964	2.74420e+02	9.64000e+02	2.82436	272.0
965	2.74928e+02	9.65000e+02	2.82405	272.5
966	2.75441e+02	9.66000e+02	2.82374	273.0
967	2.75945e+02	9.67000e+02	2.82342	273.5
968	2.76453e+02	9.68000e+02	2.8231	274.0
969	2.76965e+02	9.69000e+02	2.82278	274.5
970	2.77451e+02	9.70000e+02	2.82245	275.0
971	2.77959e+02	9.71000e+02	2.82211	275.5
972	2.78458e+02	9.72000e+02	2.82176	276.0
973	2.78968e+02	9.73000e+02	2.8214	276.5
974	2.79472e+02	9.74000e+02	2.82104	277.0
975	2.79981e+02	9.75000e+02	2.82067	277.5
976	2.80498e+02	9.76000e+02	2.82027	278.0
977	2.81009e+02	9.77000e+02	2.81987	278.5
978	2.81510e+02	9.78000e+02	2.81947	279.0
979	2.82019e+02	9.79000e+02	2.81905	279.5
980	2.82517e+02	9.80000e+02	2.81859	280.0
981	2.83022e+02	9.81000e+02	2.81814	280.5
982	2.83534e+02	9.82000e+02	2.81768	281.0
983	2.84038e+02	9.83000e+02	2.8172	281.5
984	2.84555e+02	9.84000e+02	2.81668	282.0
985	2.85047e+02	9.85000e+02	2.81617	282.5
986	2.85558e+02	9.86000e+02	2.81564	283.0
987	2.86069e+02	9.87000e+02	2.8151	283.5
988	2.86579e+02	9.88000e+02	2.8145	284.0
989	2.87077e+02	9.89000e+02	2.81392	284.5
990	2.87586e+02	9.90000e+02	2.81333	285.0
991	2.88093e+02	9.91000e+02	2.81273	285.5
992	2.88604e+02	9.92000e+02	2.81209	286.0
993	2.89114e+02	9.93000e+02	2.81144	286.5
994	2.89612e+02	9.94000e+02	2.81078	287.0
995	2.90110e+02	9.95000e+02	2.81011	287.5
996	2.90629e+02	9.96000e+02	2.80936	288.0
997	2.91129e+02	9.97000e+02	2.80861	288.5
998	2.91629e+02	9.98000e+02	2.80785	289.0
999	2.92130e+02	9.99000e+02	2.80706	289.5
1000	2.92627e+02	1.00000e+03	2.80618	290.0
1001	2.93138e+02	1.00100e+03	2.80531	290.5
1002	2.93635e+02	1.00200e+03	2.80442	291.0
1003	2.94139e+02	1.00300e+03	2.80352	291.5
1004	2.94638e+02	1.00400e+03	2.80252	292.0
1005	2.95135e+02	1.00500e+03	2.80154	292.5
1006	2.95629e+02	1.00600e+03	2.80053	293.0
1007	2.96126e+02	1.00700e+03	2.79951	293.5
1008	2.96625e+02	1.00800e+03	2.7984	294.0
1009	2.97121e+02	1.00900e+03	2.79729	294.5
1010	2.97609e+02	1.01000e+03	2.79617	295.0
1011	2.98111e+02	1.01100e+03	2.79503	295.5
1012	2.98602e+02	1.01200e+03	2.79379	296.0
1013	2.99089e+02	1.01300e+03	2.79255	296.5
1014	2.99592e+02	1.01400e+03	2.7913	297.0
1015	3.00080e+02	1.01500e+03	2.79002	297.5
1016	3.00566e+02	1.01600e+03	2.78863	298.0
1017	3.01057e+02	1.01700e+03	2.78725	298.5
1018	3.01540e+02	1.01800e+03	2.78584	299.0
1019	3.02038e+02	1.01900e+03	2.78441	299.5
1020	3.02530e+02	1.02000e+03	2.78285	300.0
1021	3.03009e+02	1.02100e+03	2.78131	300.5
1022	3.03503e+02	1.02200e+03	2.77974	301.0
1023	3.03989e+02	1.02300e+03	2.77814	301.5
1024	3.04476e+02	1.02400e+03	2.77642	302.0
1025	3.04953e+02	1.02500e+03	2.77472	302.5
1026	3.05429e+02	1.02600e+03	2.773	303.0
1027	3.05909e+02	1.02700e+03	2.77127	303.5
1028	3.06380e+02	1.02800e+03	2.76943	304.0
1029	3.06845e+02	1.02900e+03	2.76761	304.5
1030	3.07323e+02	1.03000e+03	2.76579	305.0
1031	3.07802e+02	1.03100e+03	2.76395	305.5
1032	3.08285e+02	1.03200e+03	2.76204	306.0
1033	3.08750e+02	1.03300e+03	2.76013	306.5
1034	3.09239e+02	1.03400e+03	2.75821	307.0
1035	3.09723e+02	1.03500e+03	2.75627	307.5
1036	3.10225e+02	1.03600e+03	2.75425	308.0
1037	3.10710e+02	1.03700e+03	2.75224	308.5
1038	3.11195e+02	1.03800e+03	2.75021	309.0
1039	3.11681e+02	1.03900e+03	2.74816	309.5
1040	3.12169e+02	1.04000e+03	2.74603	310.0
1041	3.12667e+02	1.04100e+03	2.74392	310.5
1042	3.13167e+02	1.04200e+03	2.7418	311.0
1043	3.13656e+02	1.04300e+03	2.73966	311.5
1044	3.14162e+02	1.04400e+03	2.73746	312.0
1045	3.14658e+02	1.04500e+03	2.73527	312.5
1046	3.15142e+02	1.04600e+03	2.73308	313.0
1047	3.15648e+02	1.04700e+03	2.73088	313.5
1048	3.16142e+02	1.04800e+03	2.72863	314.0
1049	3.16644e+02	1.04900e+03	2.7264	314.5
1050	3.17140e+02	1.05000e+03	2.72415	315.0
1051	3.17641e+02	1.05100e+03	2.72189	315.5
1052	3.18134e+02	1.05200e+03	2.71958	316.0
1053	3.18631e+02	1.05300e+03	2.71727	316.5
1054	3.19125e+02	1.05400e+03	2.71494	317.0
1055	3.19617e+02	1.05500e+03	2.71259	317.5
1056	3.20125e+02	1.05600e+03	2.71016	318.0
1057	3.20629e+02	1.05700e+03	2.70775	318.5
1058	3.21125e+02	1.05800e+03	2.70533	319.0
1059	3.21633e+02	1.05900e+03	2.70289	319.5
1060	3.22136e+02	1.06000e+03	2.70039	320.0
1061	3.22643e+02	1.06100e+03	2.69789	320.5
1062	3.23149e+02	1.06200e+03	2.69538	321.0
1063	3.23648e+02	1.06300e+03	2.69285	321.5
1064	3.24154e+02	1.06400e+03	2.69026	322.0
1065	3.24659e+02	1.06500e+03	2.68767	322.5
1066	3.25156e+02	1.06600e+03	2.68508	323.0
1067	3.25665e+02	1.06700e+03	2.68247	323.5
1068	3.26160e+02	1.06800e+03	2.6798	324.0
1069	3.26667e+02	1.06900e+03	2.67714	324.5
1070	3.27166e+02	1.07000e+03	2.67448	325.0
1071	3.27674e+02	1.07100e+03	2.6718	325.5
1072	3.28164e+02	1.07200e+03	2.66906	326.0
1073	3.28672e+02	1.07300e+03	2.66633	326.5
1074	3.29167e+02	1.07400e+03	2.66357	327.0
1075	3.29669e+02	1.07500e+03	2.6608	327.5
1076	3.30169e+02	1.07600e+03	2.65794	328.0
1077	3.30676e+02	1.07700e+03	2.65509	328.5
1078	3.31172e+02	1.07800e+03	2.6522	329.0
1079	3.31673e+02	1.07900e+03	2.64929	329.5
1080	3.32175e+02	1.08000e+03	2.64622	330.0
1081	3.32664e+02	1.08100e+03	2.64314	330.5
1082	3.33162e+02	1.08200e+03	2.64	331.0
1083	3.33665e+02	1.08300e+03	2.6368	331.5
1084	3.34169e+02	1.08400e+03	2.63333	332.0
1085	3.34665e+02	1.08500e+03	2.62987	332.5
1086	3.35173e+02	1.08600e+03	2.62634	333.0
1087	3.35667e+02	1.08700e+03	2.62273	333.5
1088	3.36165e+02	1.08800e+03	2.61879	334.0
1089	3.36661e+02	1.08900e+03	2.61489	334.5
1090	3.37159e+02	1.09000e+03	2.61091	335.0
1091	3.37667e+02	1.09100e+03	2.60687	335.5
1092	3.38165e+02	1.09200e+03	2.60247	336.0
1093	3.38661e+02	1.09300e+03	2.59811	336.5
1094	3.39165e+02	1.09400e+03	2.59366	337.0
1095	3.39656e+02	1.09500e+03	2.58912	337.5
1096	3.40156e+02	1.09600e+03	2.58418	338.0
1097	3.40662e+02	1.09700e+03	2.57927	338.5
1098	3.41161e+02	1.09800e+03	2.57425	339.0
1099	3.41650e+02	1.09900e+03	2.56914	339.5
1100	3.42157e+02	1.10000e+03	2.56356	340.0
1101	3.42654e+02	1.10100e+03	2.55802	340.5
1102	3.43156e+02	1.10200e+03	2.55236	341.0
1103	3.43653e+02	1.10300e+03	2.5466	341.5
1104	3.44156e+02	1.10400e+03	2.54031	342.0
1105	3.44646e+02	1.10500e+03	2.53407	342.5
1106	3.45146e+02	1.10600e+03	2.52769	343.0
1107	3.45642e+02	1.10700e+03	2.5212	343.5
1108	3.46153e+02	1.10800e+03	2.51411	344.0
1109	3.46647e+02	1.10900e+03	2.50708	344.5
1110	3.47141e+02	1.11000e+03	2.49991	345.0
1111	3.47642e+02	1.11100e+03	2.4926	345.5
1112	3.48144e+02	1.11200e+03	2.48462	346.0
1113	3.48641e+02	1.11300e+03	2.47672	346.5
1114	3.49155e+02	1.11400e+03	2.46866	347.0
1115	3.49644e+02	1.11500e+03	2.46046	347.5
1116	3.50147e+02	1.11600e+03	2.45153	348.0
1117	3.50646e+02	1.11700e+03	2.44269	348.5
1118	3.51139e+02	1.11800e+03	2.43368	349.0
1119	3.51640e+02	1.11900e+03	2.42453	349.5
1120	3.52134e+02	1.12000e+03	2.4146	350.0
1121	3.52628e+02	1.12100e+03	2.40474	350.5
1122	3.53124e+02	1.12200e+03	2.39471	351.0
1123	3.53610e+02	1.12300e+03	2.38452	351.5
1124	3.54105e+02	1.12400e+03	2.37349	352.0
1125	3.54600e+02	1.12500e+03	2.36257	352.5
1126	3.55096e+02	1.12600e+03	2.35148	353.0
1127	3.55585e+02	1.12700e+03	2.34022	353.5
1128	3.56082e+02	1.12800e+03	2.32812	354.0
1129	3.56573e+02	1.12900e+03	2.31612	354.5
1130	3.57058e+02	1.13000e+03	2.30395	355.0
1131	3.57560e+02	1.13100e+03	2.29161	355.5
1132	3.58046e+02	1.13200e+03	2.27843	356.0
1133	3.58532e+02	1.13300e+03	2.26536	356.5
1134	3.59019e+02	1.13400e+03	2.25211	357.0
1135	3.59519e+02	1.13500e+03	2.23871	357.5
1136	3.60006e+02	1.13600e+03	2.22446	358.0
1137	3.60503e+02	1.13700e+03	2.21031	358.5
1138	3.60996e+02	1.13800e+03	2.19599	359.0
1139	3.61485e+02	1.13900e+03	2.1815	359.5
1140	3.61971e+02	1.14000e+03	2.16618	360.0
1141	3.62461e+02	1.14100e+03	2.15098	360.5
1142	3.62954e+02	1.14200e+03	2.13562	361.0
1143	3.63440e+02	1.14300e+03	2.12011	361.5
1144	3.63935e+02	1.14400e+03	2.1038	362.0
1145	3.64420e+02	1.14500e+03	2.08761	362.5
1146	3.64918e+02	1.14600e+03	2.07126	363.0
1147	3.65422e+02	1.14700e+03	2.05477	363.5
1148	3.65911e+02	1.14800e+03	2.03751	364.0
1149	3.66410e+02	1.14900e+03	2.02037	364.5
1150	3.66903e+02	1.15000e+03	2.00309	365.0
1151	3.67392e+02	1.15100e+03	1.98567	365.5
1152	3.67890e+02	1.15200e+03	1.96755	366.0
1153	3.68379e+02	1.15300e+03	1.94954	366.5
1154	3.68875e+02	1.15400e+03	1.93139	367.0
1155	3.69369e+02	1.15500e+03	1.91311	367.5
1156	3.69865e+02	1.15600e+03	1.89414	368.0
1157	3.70361e+02	1.15700e+03	1.87525	368.5
1158	3.70855e+02	1.15800e+03	1.85621	369.0
1159	3.71351e+02	1.15900e+03	1.83704	369.5
1160	3.71846e+02	1.16000e+03	1.81715	370.0
1161	3.72357e+02	1.16100e+03	1.79738	370.5
1162	3.72864e+02	1.16200e+03	1.77748	371.0
1163	3.73350e+02	1.16300e+03	1.75743	371.5
1164	3.73849e+02	1.16400e+03	1.73672	372.0
1165	3.74362e+02	1.16500e+03	1.7161	372.5
1166	3.74853e+02	1.16600e+03	1.69535	373.0
1167	3.75367e+02	1.16700e+03	1.67448	373.5
1168	3.75891e+02	1.16800e+03	1.65299	374.0
1169	3.76400e+02	1.16900e+03	1.63164	374.5
1170	3.76895e+02	1.17000e+03	1.61021	375.0
1171	3.77395e+02	1.17100e+03	1.58869	375.5
1172	3.77898e+02	1.17200e+03	1.56672	376.0
1173	3.78414e+02	1.17300e+03	1.54486	376.5
1174	3.78941e+02	1.17400e+03	1.52294	377.0
1175	3.79435e+02	1.17500e+03	1.50096	377.5
1176	3.79933e+02	1.17600e+03	1.47863	378.0
1177	3.80428e+02	1.17700e+03	1.45635	378.5
1178	3.80950e+02	1.17800e+03	1.43399	379.0
1179	3.81427e+02	1.17900e+03	1.41156	379.5
1180	3.81918e+02	1.18000e+03	1.38877	380.0
1181	3.82412e+02	1.18100e+03	1.36603	380.5
1182	3.82914e+02	1.18200e+03	1.34324	381.0
1183	3.83407e+02	1.18300e+03	1.3204	381.5
1184	3.83902e+02	1.18400e+03	1.29732	382.0
1185	3.84392e+02	1.18500e+03	1.27437	382.5
1186	3.84891e+02	1.18600e+03	1.25147	383.0
1187	3.85382e+02	1.18700e+03	1.2286	383.5
1188	3.85875e+02	1.18800e+03	1.20585	384.0
1189	3.86368e+02	1.18900e+03	1.18316	384.5
1190	3.86869e+02	1.19000e+03	1.16055	385.0
1191	3.87373e+02	1.19100e+03	1.13801	385.5
1192	3.87866e+02	1.19200e+03	1.11581	386.0
1193	3.88369e+02	1.19300e+03	1.09359	386.5
1194	3.88876e+02	1.19400e+03	1.07143	387.0
1195	3.89373e+02	1.19500e+03	1.04934	387.5
1196	3.89874e+02	1.19600e+03	1.02761	388.0
1197	3.90382e+02	1.19700e+03	1.00578	388.5
1198	3.90888e+02	1.19800e+03	0.983997	389.0
1199	3.91388e+02	1.19900e+03	0.962248	389.5
1200	3.91888e+02	1.20000e+03	0.940753	390.0
1201	3.92386e+02	1.20100e+03	0.919217	390.5
1202	3.92885e+02	1.20200e+03	0.897738	391.0
1203	3.93378e+02	1.20300e+03	0.876313	391.5
1204	3.93873e+02	1.20400e+03	0.855168	392.0
1205	3.94359e+02	1.20500e+03	0.834033	392.5
1206	3.94874e+02	1.20600e+03	0.812984	393.0
1207	3.95364e+02	1.20700e+03	0.79201	393.5
1208	3.95856e+02	1.20800e+03	0.771456	394.0
1209	3.96357e+02	1.20900e+03	0.750872	394.5
1210	3.96858e+02	1.21000e+03	0.730421	395.0
1211	3.97349e+02	1.21100e+03	0.710096	395.5
1212	3.97853e+02	1.21200e+03	0.690326	396.0
1213	3.98347e+02	1.21300e+03	0.670543	396.5
1214	3.98850e+02	1.21400e+03	0.650932	397.0
1215	3.99356e+02	1.21500e+03	0.631465	397.5
1216	3.99854e+02	1.21600e+03	0.612756	398.0
1217	4.00358e+02	1.21700e+03	0.593987	398.5
1218	4.00863e+02	1.21800e+03	0.575428	399.0
1219	4.01380e+02	1.21900e+03	0.557056	399.5
1220	4.01883e+02	1.22000e+03	0.539619	400.0
1221	4.02376e+02	1.22100e+03	0.522125	400.5
1222	4.02887e+02	1.22200e+03	0.504886	401.0
1223	4.03390e+02	1.22300e+03	0.487872	401.5
1224	4.03892e+02	1.22400e+03	0.471995	402.0
1225	4.04395e+02	1.22500e+03	0.455981	402.5
1226	4.04900e+02	1.22600e+03	0.440228	403.0
1227	4.05405e+02	1.22700e+03	0.424716	403.5
1228	4.05897e+02	1.22800e+03	0.410409	404.0
1229	4.06406e+02	1.22900e+03	0.395961	404.5
1230	4.06909e+02	1.23000e+03	0.381779	405.0
1231	4.07420e+02	1.23100e+03	0.367839	405.5
1232	4.07936e+02	1.23200e+03	0.355152	406.0
1233	4.08449e+02	1.23300e+03	0.342286	406.5
1234	4.08960e+02	1.23400e+03	0.32967	407.0
1235	4.09470e+02	1.23500e+03	0.317288	407.5
1236	4.09975e+02	1.23600e+03	0.306117	408.0
1237	4.10475e+02	1.23700e+03	0.294761	408.5
1238	4.10988e+02	1.23800e+03	0.283635	409.0
1239	4.11506e+02	1.23900e+03	0.272724	409.5
1240	4.12004e+02	1.24000e+03	0.262926	410.0
1241	4.12518e+02	1.24100e+03	0.252946	410.5
1242	4.13017e+02	1.24200e+03	0.243171	411.0
1243	4.13536e+02	1.24300e+03	0.233593	411.5
1244	4.14034e+02	1.24400e+03	0.225025	412.0
1245	4.14545e+02	1.24500e+03	0.216315	412.5
1246	4.15047e+02	1.24600e+03	0.207807	413.0
1247	4.15553e+02	1.24700e+03	0.199487	413.5
1248	4.16052e+02	1.24800e+03	0.192133	414.0
1249	4.16549e+02	1.24900e+03	0.184636	414.5
1250	4.17061e+02	1.25000e+03	0.177324	415.0
1251	4.17561e+02	1.25100e+03	0.170187	415.5
1252	4.18070e+02	1.25200e+03	0.163958	416.0
1253	4.18573e+02	1.25300e+03	0.157588	416.5
1254	4.19075e+02	1.25400e+03	0.151389	417.0
1255	4.19577e+02	1.25500e+03	0.145351	417.5
1256	4.20081e+02	1.25600e+03	0.140146	418.0
1257	4.20591e+02	1.25700e+03	0.134807	418.5
1258	4.21089e+02	1.25800e+03	0.12962	419.0
1259	4.21596e+02	1.25900e+03	0.124577	419.5
1260	4.22091e+02	1.26000e+03	0.120277	420.0
1261	4.22606e+02	1.26100e+03	0.115855	420.5
1262	4.23093e+02	1.26200e+03	0.111569	421.0
1263	4.23597e+02	1.26300e+03	0.107412	421.5
1264	4.24094e+02	1.26400e+03	0.103918	422.0
1265	4.24605e+02	1.26500e+03	0.100319	422.5
1266	4.25107e+02	1.26600e+03	0.0968406	423.0
1267	4.25598e+02	1.26700e+03	0.093476	423.5
1268	4.26109e+02	1.26800e+03	0.0907006	424.0
1269	4.26619e+02	1.26900e+03	0.0878187	424.5
1270	4.27115e+02	1.27000e+03	0.0850343	425.0
1271	4.27610e+02	1.27100e+03	0.082344	425.5
1272	4.28110e+02	1.27200e+03	0.0801401	426.0
1273	4.28611e+02	1.27300e+03	0.0778462	426.5
1274	4.29114e+02	1.27400e+03	0.0756296	427.0
1275	4.29611e+02	1.27500e+03	0.0734889	427.5
1276	4.30104e+02	1.27600e+03	0.0717408	428.0
1277	4.30605e+02	1.27700e+03	0.069919	428.5
1278	4.31098e+02	1.27800e+03	0.0681594	429.0
1279	4.31594e+02	1.27900e+03	0.0664606	429.5
1280	4.32086e+02	1.28000e+03	0.0650758	430.0
1281	4.32586e+02	1.28100e+03	0.0636338	430.5
1282	4.33082e+02	1.28200e+03	0.0622439	431.0
1283	4.33574e+02	1.28300e+03	0.0609052	431.5
1284	4.34059e+02	1.28400e+03	0.0598266	432.0
1285	4.34560e+02	1.28500e+03	0.0587026	432.5
1286	4.35063e+02	1.28600e+03	0.0576211	433.0
1287	4.35557e+02	1.28700e+03	0.0565809	433.5
1288	4.36064e+02	1.28800e+03	0.0557584	434.0
1289	4.36553e+02	1.28900e+03	0.0548931	434.5
1290	4.37037e+02	1.29000e+03	0.0540592	435.0
1291	4.37535e+02	1.29100e+03	0.0532563	435.5
1292	4.38027e+02	1.29200e+03	0.052615	436.0
1293	4.38521e+02	1.29300e+03	0.0519373	436.5
1294	4.39020e+02	1.29400e+03	0.0512825	437.0
1295	4.39509e+02	1.29500e+03	0.0506521	437.5
1296	4.40008e+02	1.29600e+03	0.0501389	438.0
1297	4.40500e+02	1.29700e+03	0.0496061	438.5
1298	4.40998e+02	1.29800e+03	0.049096	439.0
1299	4.41486e+02	1.29900e+03	0.0486079	439.5
1300	4.41995e+02	1.30000e+03	0.0482253	440.0
1301	4.42484e+02	1.30100e+03	0.0478245	440.5
1302	4.42972e+02	1.30200e+03	0.0474412	441.0
1303	4.43472e+02	1.30300e+03	0.0470743	441.5
1304	4.43974e+02	1.30400e+03	0.0467962	442.0
1305	4.44461e+02	1.30500e+03	0.0464984	442.5
1306	4.44951e+02	1.30600e+03	0.0462131	443.0
1307	4.45450e+02	1.30700e+03	0.0459415	443.5
1308	4.45939e+02	1.30800e+03	0.0457361	444.0
1309	4.46436e+02	1.30900e+03	0.0455177	444.5
1310	4.46929e+02	1.31000e+03	0.0453094	445.0
1311	4.47413e+02	1.31100e+03	0.0451114	445.5
1312	4.47919e+02	1.31200e+03	0.0449635	446.0
1313	4.48396e+02	1.31300e+03	0.0447977	446.5
1314	4.48890e+02	1.31400e+03	0.0446296	447.0
1315	4.49365e+02	1.31500e+03	0.0444625	447.5
1316	4.49868e+02	1.31600e+03	0.0443085	448.0
1317	4.50363e+02	1.31700e+03	0.0441456	448.5
1318	4.50859e+02	1.31800e+03	0.0439809	449.0
1319	4.51347e+02	1.31900e+03	0.0438166	449.5
1320	4.51834e+02	1.32000e+03	0.0436552	450.0
1321	4.52329e+02	1.32100e+03	0.0435079	450.5
1322	4.52817e+02	1.32200e+03	0.0433742	451.0
1323	4.53302e+02	1.32300e+03	0.0432497	451.5
1324	4.53794e+02	1.32400e+03	0.043166	452.0
1325	4.54290e+02	1.32500e+03	0.0430778	452.5
1326	4.54774e+02	1.32600e+03	0.042997	453.0
1327	4.55258e+02	1.32700e+03	0.0429227	453.5
1328	4.55761e+02	1.32800e+03	0.0428885	454.0
1329	4.56263e+02	1.32900e+03	0.0428423	454.5
1330	4.56756e+02	1.33000e+03	0.0427999	455.0
1331	4.57256e+02	1.33100e+03	0.0427625	455.5
1332	4.57733e+02	1.33200e+03	0.0427438	456.0
1333	4.58232e+02	1.33300e+03	0.0427187	456.5
1334	4.58725e+02	1.33400e+03	0.0426937	457.0
1335	4.59214e+02	1.33500e+03	0.0426694	457.5
1336	4.59703e+02	1.33600e+03	0.0426503	458.0
1337	4.60193e+02	1.33700e+03	0.0426246	458.5
1338	4.60688e+02	1.33800e+03	0.0425956	459.0
1339	4.61189e+02	1.33900e+03	0.0425651	459.5
1340	4.61682e+02	1.34000e+03	0.0425235	460.0
1341	4.62173e+02	1.34100e+03	0.0424832	460.5
1342	4.62671e+02	1.34200e+03	0.0424417	461.0
1343	4.63175e+02	1.34300e+03	0.0423998	461.5
1344	4.63682e+02	1.34400e+03	0.0423552	462.0
1345	4.64177e+02	1.34500e+03	0.0423169	462.5
1346	4.64671e+02	1.34600e+03	0.0422823	463.0
1347	4.65162e+02	1.34700e+03	0.0422498	463.5
1348	4.65654e+02	1.34800e+03	0.0422321	464.0
1349	4.66142e+02	1.34900e+03	0.042212	464.5
1350	4.66621e+02	1.35000e+03	0.0421929	465.0
1351	4.67112e+02	1.35100e+03	0.0421751	465.5
1352	4.67608e+02	1.35200e+03	0.0421612	466.0
1353	4.68094e+02	1.35300e+03	0.0421383	466.5
1354	4.68577e+02	1.35400e+03	0.0421083	467.0
1355	4.69073e+02	1.35500e+03	0.0420733	467.5
1356	4.69566e+02	1.35600e+03	0.0420164	468.0
1357	4.70059e+02	1.35700e+03	0.0419632	468.5
1358	4.70536e+02	1.35800e+03	0.0419096	469.0
1359	4.71023e+02	1.35900e+03	0.0418556	469.5
1360	4.71500e+02	1.36000e+03	0.0417954	470.0
1361	4.71993e+02	1.36100e+03	0.0417492	470.5
1362	4.72469e+02	1.36200e+03	0.0417106	471.0
1363	4.72966e+02	1.36300e+03	0.041676	471.5
1364	4.73446e+02	1.36400e+03	0.0416689	472.0
1365	4.73935e+02	1.36500e+03	0.0416557	472.5
1366	4.74426e+02	1.36600e+03	0.0416456	473.0
1367	4.74908e+02	1.36700e+03	0.0416386	473.5
1368	4.75399e+02	1.36800e+03	0.0416452	474.0
1369	4.75886e+02	1.36900e+03	0.0416458	474.5
1370	4.76384e+02	1.37000e+03	0.041647	475.0
1371	4.76874e+02	1.37100e+03	0.0416492	475.5
1372	4.77361e+02	1.37200e+03	0.041649	476.0
1373	4.77854e+02	1.37300e+03	0.0416444	476.5
1374	4.78348e+02	1.37400e+03	0.0416348	477.0
1375	4.78843e+02	1.37500e+03	0.0416221	477.5
1376	4.79332e+02	1.37600e+03	0.0415968	478.0
1377	4.79821e+02	1.37700e+03	0.0415736	478.5
1378	4.80305e+02	1.37800e+03	0.041551	479.0
1379	4.80796e+02	1.37900e+03	0.0415296	479.5
1380	4.81293e+02	1.38000e+03	0.0415086	480.0
1381	4.81783e+02	1.38100e+03	0.0414956	480.5
1382	4.82270e+02	1.38200e+03	0.041486	481.0
1383	4.82760e+02	1.38300e+03	0.0414776	481.5
1384	4.83244e+02	1.38400e+03	0.0414815	482.0
1385	4.83735e+02	1.38500e+03	0.0414743	482.5
1386	4.84224e+02	1.38600e+03	0.0414616	483.0
1387	4.84717e+02	1.38700e+03	0.0414462	483.5
1388	4.85205e+02	1.38800e+03	0.041414	484.0
1389	4.85698e+02	1.38900e+03	0.041381	484.5
1390	4.86192e+02	1.39000e+03	0.0413412	485.0
1391	4.86683e+02	1.39100e+03	0.041296	485.5
1392	4.87180e+02	1.39200e+03	0.0412279	486.0
1393	4.87661e+02	1.39300e+03	0.041168	486.5
1394	4.88148e+02	1.39400e+03	0.0411112	487.0
1395	4.88647e+02	1.39500e+03	0.041056	487.5
1396	4.89133e+02	1.39600e+03	0.041	488.0
1397	4.89624e+02	1.39700e+03	0.0409523	488.5
1398	4.90115e+02	1.39800e+03	0.0409081	489.0
1399	4.90615e+02	1.39900e+03	0.0408649	489.5
1400	4.91103e+02	1.40000e+03	0.0408367	490.0
1401	4.91585e+02	1.40100e+03	0.0408002	490.5
1402	4.92074e+02	1.40200e+03	0.0407629	491.0
1403	4.92568e+02	1.40300e+03	0.0407269	491.5
1404	4.93058e+02	1.40400e+03	0.0406937	492.0
1405	4.93551e+02	1.40500e+03	0.0406632	492.5
1406	4.94036e+02	1.40600e+03	0.040634	493.0
1407	4.94524e+02	1.40700e+03	0.0406056	493.5
1408	4.95020e+02	1.40800e+03	0.0405851	494.0
1409	4.95513e+02	1.40900e+03	0.0405607	494.5
1410	4.95995e+02	1.41000e+03	0.0405364	495.0
1411	4.96495e+02	1.41100e+03	0.040513	495.5
1412	4.96973e+02	1.41200e+03	0.040494	496.0
1413	4.97467e+02	1.41300e+03	0.0404787	496.5
1414	4.97956e+02	1.41400e+03	0.0404677	497.0
1415	4.98445e+02	1.41500e+03	0.0404599	497.5
1416	4.98947e+02	1.41600e+03	0.0404662	498.0
1417	4.99427e+02	1.41700e+03	0.0404694	498.5
1418	4.99913e+02	1.41800e+03	0.0404726	499.0
1419	5.00389e+02	1.41900e+03	0.0404755	499.5
1420	5.00863e+02	1.42000e+03	0.0404817	500.0
1421	5.01367e+02	1.42100e+03	0.0404822	500.5
1422	5.01853e+02	1.42200e+03	0.0404813	501.0
1423	5.02334e+02	1.42300e+03	0.04048	501.5
1424	5.02823e+02	1.42400e+03	0.0404684	502.0
1425	5.03310e+02	1.42500e+03	0.0404603	502.5
1426	5.03802e+02	1.42600e+03	0.0404519	503.0
1427	5.04295e+02	1.42700e+03	0.0404424	503.5
1428	5.04781e+02	1.42800e+03	0.040428	504.0
1429	5.05259e+02	1.42900e+03	0.0404132	504.5
1430	5.05753e+02	1.43000e+03	0.0403961	505.0
1431	5.06234e+02	1.43100e+03	0.0403769	505.5
1432	5.06722e+02	1.43200e+03	0.0403476	506.0
1433	5.07212e+02	1.43300e+03	0.0403184	506.5
1434	5.07710e+02	1.43400e+03	0.0402873	507.0
1435	5.08195e+02	1.43500e+03	0.0402547	507.5
1436	5.08685e+02	1.43600e+03	0.0402114	508.0
1437	5.09172e+02	1.43700e+03	0.0401732	508.5
1438	5.09666e+02	1.43800e+03	0.040138	509.0
1439	5.10154e+02	1.43900e+03	0.0401055	509.5
1440	5.10633e+02	1.44000e+03	0.0400845	510.0
1441	5.11126e+02	1.44100e+03	0.0400683	510.5
1442	5.11613e+02	1.44200e+03	0.040057	511.0
1443	5.12096e+02	1.44300e+03	0.0400488	511.5
1444	5.12584e+02	1.44400e+03	0.0400604	512.0
1445	5.13064e+02	1.44500e+03	0.0400596	512.5
1446	5.13549e+02	1.44600e+03	0.0400542	513.0
1447	5.14052e+02	1.44700e+03	0.0400469	513.5
1448	5.14537e+02	1.44800e+03	0.0400307	514.0
1449	5.15027e+02	1.44900e+03	0.0400132	514.5
1450	5.15507e+02	1.45000e+03	0.0399925	515.0
1451	5.15998e+02	1.45100e+03	0.0399699	515.5
1452	5.16494e+02	1.45200e+03	0.0399371	516.0
1453	5.16980e+02	1.45300e+03	0.0399128	516.5
1454	5.17472e+02	1.45400e+03	0.0398928	517.0
1455	5.17960e+02	1.45500e+03	0.0398747	517.5
1456	5.18445e+02	1.45600e+03	0.0398688	518.0
1457	5.18952e+02	1.45700e+03	0.039865	518.5
1458	5.19437e+02	1.45800e+03	0.0398635	519.0
1459	5.19920e+02	1.45900e+03	0.0398623	519.5
1460	5.20412e+02	1.46000e+03	0.0398694	520.0
1461	5.20914e+02	1.46100e+03	0.0398673	520.5
1462	5.21387e+02	1.46200e+03	0.0398625	521.0
1463	5.21875e+02	1.46300e+03	0.0398572	521.5
1464	5.22367e+02	1.46400e+03	0.0398412	522.0
1465	5.22862e+02	1.46500e+03	0.0398298	522.5
1466	5.23357e+02	1.46600e+03	0.0398189	523.0
1467	5.23856e+02	1.46700e+03	0.0398079	523.5
1468	5.24335e+02	1.46800e+03	0.0397932	524.0
1469	5.24817e+02	1.46900e+03	0.0397767	524.5
1470	5.25323e+02	1.47000e+03	0.0397586	525.0
1471	5.25819e+02	1.47100e+03	0.0397398	525.5
1472	5.26304e+02	1.47200e+03	0.0397156	526.0
1473	5.26794e+02	1.47300e+03	0.0396927	526.5
1474	5.27284e+02	1.47400e+03	0.0396688	527.0
1475	5.27779e+02	1.47500e+03	0.0396445	527.5
1476	5.28271e+02	1.47600e+03	0.0396168	528.0
1477	5.28755e+02	1.47700e+03	0.0395875	528.5
1478	5.29251e+02	1.47800e+03	0.0395561	529.0
1479	5.29743e+02	1.47900e+03	0.0395234	529.5
1480	5.30236e+02	1.48000e+03	0.0394845	530.0
1481	5.30718e+02	1.48100e+03	0.0394475	530.5
1482	5.31211e+02	1.48200e+03	0.0394096	531.0
1483	5.31705e+02	1.48300e+03	0.0393709	531.5
1484	5.32199e+02	1.48400e+03	0.039332	532.0
1485	5.32687e+02	1.48500e+03	0.0392971	532.5
1486	5.33182e+02	1.48600e+03	0.0392651	533.0
1487	5.33674e+02	1.48700e+03	0.0392348	533.5
1488	5.34167e+02	1.48800e+03	0.0392163	534.0
1489	5.34667e+02	1.48900e+03	0.0391984	534.5
1490	5.35151e+02	1.49000e+03	0.0391824	535.0
1491	5.35642e+02	1.49100e+03	0.0391677	535.5
1492	5.36145e+02	1.49200e+03	0.0391645	536.0
1493	5.36632e+02	1.49300e+03	0.039156	536.5
1494	5.37124e+02	1.49400e+03	0.0391469	537.0
1495	5.37610e+02	1.49500e+03	0.0391384	537.5
1496	5.38104e+02	1.49600e+03	0.0391339	538.0
1497	5.38598e+02	1.49700e+03	0.0391306	538.5
1498	5.39094e+02	1.49800e+03	0.0391281	539.0
1499	5.39587e+02	1.49900e+03	0.0391257	539.5
1500	5.40079e+02	1.50000e+03	0.039126	540.0
1501	5.40571e+02	1.50100e+03	0.0391227	540.5
1502	5.41069e+02	1.50200e+03	0.0391189	541.0
1503	5.41568e+02	1.50300e+03	0.0391148	541.5
1504	5.42064e+02	1.50400e+03	0.0391028	542.0
1505	5.42557e+02	1.50500e+03	0.0390902	542.5
1506	5.43047e+02	1.50600e+03	0.0390746	543.0
1507	5.43535e+02	1.50700e+03	0.0390565	543.5
1508	5.44039e+02	1.50800e+03	0.0390254	544.0
1509	5.44529e+02	1.50900e+03	0.0389952	544.5
1510	5.45023e+02	1.51000e+03	0.0389647	545.0
1511	5.45504e+02	1.51100e+03	0.0389349	545.5
1512	5.45996e+02	1.51200e+03	0.0388998	546.0
1513	5.46477e+02	1.51300e+03	0.0388727	546.5
1514	5.46967e+02	1.51400e+03	0.0388502	547.0
1515	5.47453e+02	1.51500e+03	0.0388305	547.5
1516	5.47946e+02	1.51600e+03	0.0388248	548.0
1517	5.48432e+02	1.51700e+03	0.0388131	548.5
1518	5.48931e+02	1.51800e+03	0.0388004	549.0
1519	5.49435e+02	1.51900e+03	0.0387881	549.5
1520	5.49931e+02	1.52000e+03	0.0387794	550.0
1521	5.50430e+02	1.52100e+03	0.0387679	550.5
1522	5.50925e+02	1.52200e+03	0.0387549	551.0
1523	5.51419e+02	1.52300e+03	0.0387411	551.5
1524	5.51914e+02	1.52400e+03	0.0387268	552.0
1525	5.52395e+02	1.52500e+03	0.0387151	552.5
1526	5.52895e+02	1.52600e+03	0.0387038	553.0
1527	5.53386e+02	1.52700e+03	0.0386923	553.5
1528	5.53870e+02	1.52800e+03	0.0386824	554.0
1529	5.54372e+02	1.52900e+03	0.0386712	554.5
1530	5.54852e+02	1.53000e+03	0.0386597	555.0
1531	5.55339e+02	1.53100e+03	0.0386481	555.5
1532	5.55826e+02	1.53200e+03	0.0386349	556.0
1533	5.56319e+02	1.53300e+03	0.0386227	556.5
1534	5.56804e+02	1.53400e+03	0.0386105	557.0
1535	5.57295e+02	1.53500e+03	0.0385978	557.5
1536	5.57798e+02	1.53600e+03	0.0385837	558.0
1537	5.58286e+02	1.53700e+03	0.0385691	558.5
1538	5.58776e+02	1.53800e+03	0.0385532	559.0
1539	5.59265e+02	1.53900e+03	0.038536	559.5
1540	5.59754e+02	1.54000e+03	0.0385156	560.0
1541	5.60248e+02	1.54100e+03	0.0384959	560.5
1542	5.60738e+02	1.54200e+03	0.0384745	561.0
1543	5.61231e+02	1.54300e+03	0.0384516	561.5
1544	5.61723e+02	1.54400e+03	0.0384225	562.0
1545	5.62220e+02	1.54500e+03	0.0383944	562.5
1546	5.62707e+02	1.54600e+03	0.0383674	563.0
1547	5.63196e+02	1.54700e+03	0.0383412	563.5
1548	5.63688e+02	1.54800e+03	0.0383164	564.0
1549	5.64183e+02	1.54900e+03	0.038298	564.5
1550	5.64672e+02	1.55000e+03	0.0382836	565.0
1551	5.65169e+02	1.55100e+03	0.0382709	565.5
1552	5.65668e+02	1.55200e+03	0.038273	566.0
1553	5.66154e+02	1.55300e+03	0.0382704	566.5
1554	5.66653e+02	1.55400e+03	0.0382694	567.0
1555	5.67140e+02	1.55500e+03	0.0382709	567.5
1556	5.67633e+02	1.55600e+03	0.0382831	568.0
1557	5.68116e+02	1.55700e+03	0.0382966	568.5
1558	5.68606e+02	1.55800e+03	0.0383128	569.0
1559	5.69082e+02	1.55900e+03	0.0383299	569.5
1560	5.69578e+02	1.56000e+03	0.038355	570.0
1561	5.70074e+02	1.56100e+03	0.0383724	570.5
1562	5.70573e+02	1.56200e+03	0.0383871	571.0
1563	5.71053e+02	1.56300e+03	0.0384007	571.5
1564	5.71551e+02	1.56400e+03	0.0384055	572.0
1565	5.72048e+02	1.56500e+03	0.038413	572.5
1566	5.72543e+02	1.56600e+03	0.0384199	573.0
1567	5.73041e+02	1.56700e+03	0.0384252	573.5
1568	5.73531e+02	1.56800e+03	0.0384218	574.0
1569	5.74034e+02	1.56900e+03	0.0384187	574.5
1570	5.74519e+02	1.57000e+03	0.0384145	575.0
1571	5.75015e+02	1.57100e+03	0.0384093	575.5
1572	5.75512e+02	1.57200e+03	0.0383956	576.0
1573	5.76006e+02	1.57300e+03	0.0383845	576.5
1574	5.76499e+02	1.57400e+03	0.0383727	577.0
1575	5.76998e+02	1.57500e+03	0.0383602	577.5
1576	5.77505e+02	1.57600e+03	0.0383449	578.0
1577	5.78014e+02	1.57700e+03	0.0383311	578.5
1578	5.78511e+02	1.57800e+03	0.0383186	579.0
1579	5.79017e+02	1.57900e+03	0.0383071	579.5
1580	5.79516e+02	1.58000e+03	0.0382983	580.0
1581	5.80026e+02	1.58100e+03	0.0382919	580.5
1582	5.80539e+02	1.58200e+03	0.0382878	581.0
1583	5.81039e+02	1.58300e+03	0.038285	581.5
1584	5.81514e+02	1.58400e+03	0.0382914	582.0
1585	5.82004e+02	1.58500e+03	0.0382956	582.5
1586	5.82502e+02	1.58600e+03	0.0382997	583.0
1587	5.82989e+02	1.58700e+03	0.0383034	583.5
1588	5.83491e+02	1.58800e+03	0.0383065	584.0
1589	5.83985e+02	1.58900e+03	0.0383069	584.5
1590	5.84474e+02	1.59000e+03	0.0383063	585.0
1591	5.84966e+02	1.59100e+03	0.0383055	585.5
1592	5.85463e+02	1.59200e+03	0.0383015	586.0
1593	5.85962e+02	1.59300e+03	0.0383033	586.5
1594	5.86461e+02	1.59400e+03	0.0383087	587.0
1595	5.86950e+02	1.59500e+03	0.0383161	587.5
1596	5.87440e+02	1.59600e+03	0.038329	588.0
1597	5.87944e+02	1.59700e+03	0.038336	588.5
1598	5.88464e+02	1.59800e+03	0.0383392	589.0
1599	5.88954e+02	1.59900e+03	0.0383399	589.5
1600	5.89459e+02	1.60000e+03	0.0383316	590.0
1601	5.89951e+02	1.60100e+03	0.0383243	590.5
1602	5.90451e+02	1.60200e+03	0.0383171	591.0
1603	5.90956e+02	1.60300e+03	0.0383101	591.5
1604	5.91457e+02	1.60400e+03	0.038299	592.0
1605	5.91970e+02	1.60500e+03	0.0382954	592.5
1606	5.92479e+02	1.60600e+03	0.0382958	593.0
1607	5.92989e+02	1.60700e+03	0.0382981	593.5
1608	5.93498e+02	1.60800e+03	0.0383132	594.0
1609	5.94007e+02	1.60900e+03	0.0383225	594.5
1610	5.94529e+02	1.61000e+03	0.03833	595.0
1611	5.95050e+02	1.61100e+03	0.0383367	595.5
1612	5.95560e+02	1.61200e+03	0.0383426	596.0
1613	5.96074e+02	1.61300e+03	0.0383471	596.5
1614	5.96621e+02	1.61400e+03	0.0383511	597.0
1615	5.97131e+02	1.61500e+03	0.0383547	597.5
1616	5.97683e+02	1.61600e+03	0.0383534	598.0
1617	5.98223e+02	1.61700e+03	0.0383543	598.5
1618	5.98695e+02	1.61800e+03	0.0383542	599.0
1619	6.00161e+02	1.61900e+03	0.0383525	599.5
1620	6.00700e+02	1.62000e+03	0.0383467	600.0
1621	6.01205e+02	1.62100e+03	0.0383405	600.5
1622	6.01694e+02	1.62200e+03	0.0383342	601.0
1623	6.02189e+02	1.62300e+03	0.0383272	601.5
1624	6.02708e+02	1.62400e+03	0.0383157	602.0
1625	6.03224e+02	1.62500e+03	0.0383096	602.5
1626	6.03745e+02	1.62600e+03	0.0383064	603.0
1627	6.04248e+02	1.62700e+03	0.0383046	603.5
1628	6.04755e+02	1.62800e+03	0.038309	604.0
1629	6.05251e+02	1.62900e+03	0.0383111	604.5
1630	6.05742e+02	1.63000e+03	0.0383128	605.0
1631	6.06203e+02	1.63100e+03	0.0383143	605.5
1632	6.06677e+02	1.63200e+03	0.0383173	606.0
1633	6.07147e+02	1.63300e+03	0.0383188	606.5
1634	6.07632e+02	1.63400e+03	0.0383184	607.0
1635	6.08119e+02	1.63500e+03	0.0383163	607.5
1636	6.08600e+02	1.63600e+03	0.0383074	608.0
1637	6.09083e+02	1.63700e+03	0.0382992	608.5
1638	6.09573e+02	1.63800e+03	0.0382925	609.0
1639	6.10061e+02	1.63900e+03	0.0382875	609.5
1640	6.10537e+02	1.64000e+03	0.0382846	610.0
1641	6.11044e+02	1.64100e+03	0.038288	610.5
1642	6.11552e+02	1.64200e+03	0.0382955	611.0
1643	6.12034e+02	1.64300e+03	0.0383052	611.5
1644	6.12528e+02	1.64400e+03	0.0383275	612.0
1645	6.13024e+02	1.64500e+03	0.0383409	612.5
1646	6.13507e+02	1.64600e+03	0.0383518	613.0
1647	6.13983e+02	1.64700e+03	0.0383611	613.5
1648	6.14479e+02	1.64800e+03	0.0383605	614.0
1649	6.14974e+02	1.64900e+03	0.0383594	614.5
1650	6.15465e+02	1.65000e+03	0.038355	615.0
1651	6.15939e+02	1.65100e+03	0.038348	615.5
1652	6.16454e+02	1.65200e+03	0.0383278	616.0
1653	6.16942e+02	1.65300e+03	0.0383127	616.5
1654	6.17433e+02	1.65400e+03	0.0382995	617.0
1655	6.17921e+02	1.65500e+03	0.0382874	617.5
1656	6.18427e+02	1.65600e+03	0.0382748	618.0
1657	6.18924e+02	1.65700e+03	0.0382641	618.5
1658	6.19411e+02	1.65800e+03	0.0382539	619.0
1659	6.19898e+02	1.65900e+03	0.0382435	619.5
1660	6.20385e+02	1.66000e+03	0.0382371	620.0
1661	6.20870e+02	1.66100e+03	0.0382282	620.5
1662	6.21362e+02	1.66200e+03	0.0382205	621.0
1663	6.21846e+02	1.66300e+03	0.0382145	621.5
1664	6.22337e+02	1.66400e+03	0.038213	622.0
1665	6.22811e+02	1.66500e+03	0.0382154	622.5
1666	6.23300e+02	1.66600e+03	0.0382206	623.0
1667	6.23790e+02	1.66700e+03	0.0382271	623.5
1668	6.24295e+02	1.66800e+03	0.038242	624.0
1669	6.24783e+02	1.66900e+03	0.0382501	624.5
1670	6.25267e+02	1.67000e+03	0.0382557	625.0
1671	6.25760e+02	1.67100e+03	0.0382599	625.5
1672	6.26266e+02	1.67200e+03	0.0382562	626.0
1673	6.26772e+02	1.67300e+03	0.0382546	626.5
1674	6.27276e+02	1.67400e+03	0.0382526	627.0
1675	6.27754e+02	1.67500e+03	0.0382501	627.5
1676	6.28250e+02	1.67600e+03	0.0382446	628.0
1677	6.28763e+02	1.67700e+03	0.0382418	628.5
1678	6.29258e+02	1.67800e+03	0.0382395	629.0
1679	6.29763e+02	1.67900e+03	0.0382371	629.5
1680	6.30262e+02	1.68000e+03	0.0382357	630.0
1681	6.30765e+02	1.68100e+03	0.0382337	630.5
1682	6.31239e+02	1.68200e+03	0.0382327	631.0
1683	6.31730e+02	1.68300e+03	0.0382324	631.5
1684	6.32224e+02	1.68400e+03	0.0382346	632.0
1685	6.32714e+02	1.68500e+03	0.0382396	632.5
1686	6.33208e+02	1.68600e+03	0.0382469	633.0
1687	6.33710e+02	1.68700e+03	0.0382552	633.5
1688	6.34211e+02	1.68800e+03	0.0382697	634.0
1689	6.34706e+02	1.68900e+03	0.0382795	634.5
1690	6.35212e+02	1.69000e+03	0.0382864	635.0
1691	6.35711e+02	1.69100e+03	0.0382911	635.5
1692	6.36191e+02	1.69200e+03	0.0382881	636.0
1693	6.36692e+02	1.69300e+03	0.038285	636.5
1694	6.37203e+02	1.69400e+03	0.0382819	637.0
1695	6.37683e+02	1.69500e+03	0.0382793	637.5
1696	6.38176e+02	1.69600e+03	0.0382696	638.0
1697	6.38671e+02	1.69700e+03	0.0382635	638.5
1698	6.39163e+02	1.69800e+03	0.0382573	639.0
1699	6.39662e+02	1.69900e+03	0.0382498	639.5
1700	6.40151e+02	1.70000e+03	0.0382386	640.0
1701	6.40659e+02	1.70100e+03	0.0382223	640.5
1702	6.41170e+02	1.70200e+03	0.0382026	641.0
1703	6.41650e+02	1.70300e+03	0.0381813	641.5
1704	6.42133e+02	1.70400e+03	0.0381487	642.0
1705	6.42622e+02	1.70500e+03	0.0381245	642.5
1706	6.43110e+02	1.70600e+03	0.0381055	643.0
1707	6.43599e+02	1.70700e+03	0.03809	643.5
1708	6.44089e+02	1.70800e+03	0.0380877	644.0
1709	6.44583e+02	1.70900e+03	0.0380861	644.5
1710	6.45078e+02	1.71000e+03	0.0380875	645.0
1711	6.45593e+02	1.71100e+03	0.0380912	645.5
1712	6.46098e+02	1.71200e+03	0.0381088	646.0
1713	6.46612e+02	1.71300e+03	0.0381169	646.5
1714	6.47111e+02	1.71400e+03	0.0381233	647.0
1715	6.47600e+02	1.71500e+03	0.0381297	647.5
1716	6.48105e+02	1.71600e+03	0.0381345	648.0
1717	6.48607e+02	1.71700e+03	0.0381408	648.5
1718	6.49114e+02	1.71800e+03	0.0381469	649.0
1719	6.49612e+02	1.71900e+03	0.038153	649.5
1720	6.50116e+02	1.72000e+03	0.03816	650.0
1721	6.50596e+02	1.72100e+03	0.0381632	650.5
1722	6.51091e+02	1.72200e+03	0.0381631	651.0
1723	6.51604e+02	1.72300e+03	0.0381608	651.5
1724	6.52092e+02	1.72400e+03	0.0381492	652.0
1725	6.52573e+02	1.72500e+03	0.0381392	652.5
1726	6.53071e+02	1.72600e+03	0.0381282	653.0
1727	6.53555e+02	1.72700e+03	0.0381161	653.5
1728	6.54062e+02	1.72800e+03	0.0380971	654.0
1729	6.54551e+02	1.72900e+03	0.0380828	654.5
1730	6.55040e+02	1.73000e+03	0.0380708	655.0
1731	6.55538e+02	1.73100e+03	0.0380602	655.5
1732	6.56026e+02	1.73200e+03	0.0380572	656.0
1733	6.56519e+02	1.73300e+03	0.038055	656.5
1734	6.57024e+02	1.73400e+03	0.0380544	657.0
1735	6.57527e+02	1.73500e+03	0.0380553	657.5
1736	6.58034e+02	1.73600e+03	0.0380674	658.0
1737	6.58527e+02	1.73700e+03	0.0380754	658.5
1738	6.59023e+02	1.73800e+03	0.0380835	659.0
1739	6.59536e+02	1.73900e+03	0.0380925	659.5
1740	6.60028e+02	1.74000e+03	0.038105	660.0
1741	6.60509e+02	1.74100e+03	0.038116	660.5
1742	6.61000e+02	1.74200e+03	0.0381253	661.0
1743	6.61492e+02	1.74300e+03	0.038133	661.5
1744	6.61985e+02	1.74400e+03	0.0381322	662.0
1745	6.62468e+02	1.74500e+03	0.0381254	662.5
1746	6.62961e+02	1.74600e+03	0.0381121	663.0
1747	6.63447e+02	1.74700e+03	0.0380943	663.5
1748	6.63942e+02	1.74800e+03	0.0380591	664.0
1749	6.64424e+02	1.74900e+03	0.0380372	664.5
1750	6.64910e+02	1.75000e+03	0.0380223	665.0
1751	6.65408e+02	1.75100e+03	0.0380118	665.5
1752	6.65900e+02	1.75200e+03	0.038018	666.0
1753	6.66390e+02	1.75300e+03	0.0380268	666.5
1754	6.66874e+02	1.75400e+03	0.0380387	667.0
1755	6.67376e+02	1.75500e+03	0.0380524	667.5
1756	6.67875e+02	1.75600e+03	0.0380838	668.0
1757	6.68362e+02	1.75700e+03	0.0381007	668.5
1758	6.68853e+02	1.75800e+03	0.0381119	669.0
1759	6.69336e+02	1.75900e+03	0.0381204	669.5
1760	6.69837e+02	1.76000e+03	0.0381121	670.0
1761	6.70328e+02	1.76100e+03	0.0381068	670.5
1762	6.70808e+02	1.76200e+03	0.0380995	671.0
1763	6.71308e+02	1.76300e+03	0.0380906	671.5
1764	6.71799e+02	1.76400e+03	0.0380733	672.0
1765	6.72293e+02	1.76500e+03	0.0380624	672.5
1766	6.72789e+02	1.76600e+03	0.0380529	673.0
1767	6.73281e+02	1.76700e+03	0.0380433	673.5
1768	6.73775e+02	1.76800e+03	0.0380402	674.0
1769	6.74281e+02	1.76900e+03	0.038038	674.5
1770	6.74769e+02	1.77000e+03	0.0380396	675.0
1771	6.75277e+02	1.77100e+03	0.038045	675.5
1772	6.75768e+02	1.77200e+03	0.0380721	676.0
1773	6.76260e+02	1.77300e+03	0.0381042	676.5
1774	6.76756e+02	1.77400e+03	0.0381442	677.0
1775	6.77254e+02	1.77500e+03	0.0381897	677.5
1776	6.77736e+02	1.77600e+03	0.0382685	678.0
1777	6.78211e+02	1.77700e+03	0.0383326	678.5
1778	6.78708e+02	1.77800e+03	0.0383915	679.0
1779	6.79199e+02	1.77900e+03	0.038448	679.5
1780	6.79693e+02	1.78000e+03	0.038494	680.0
1781	6.80178e+02	1.78100e+03	0.0385287	680.5
1782	6.80682e+02	1.78200e+03	0.0385526	681.0
1783	6.81171e+02	1.78300e+03	0.038569	681.5
1784	6.81660e+02	1.78400e+03	0.0385432	682.0
1785	6.82147e+02	1.78500e+03	0.0385283	682.5
1786	6.82644e+02	1.78600e+03	0.0385092	683.0
1787	6.83126e+02	1.78700e+03	0.0384857	683.5
1788	6.83625e+02	1.78800e+03	0.0384407	684.0
1789	6.84116e+02	1.78900e+03	0.0384069	684.5
1790	6.84598e+02	1.79000e+03	0.0383761	685.0
1791	6.85095e+02	1.79100e+03	0.0383458	685.5
1792	6.85596e+02	1.79200e+03	0.0383189	686.0
1793	6.86087e+02	1.79300e+03	0.0382951	686.5
1794	6.86592e+02	1.79400e+03	0.0382745	687.0
1795	6.86799e+02	1.79500e+03	0.0382555	687.5
1796	6.86982e+02	1.79600e+03	0.0382468	688.0
1797	6.87275e+02	1.79700e+03	0.038233	688.5
1798	6.87637e+02	1.79800e+03	0.0382188	689.0
1799	6.88005e+02	1.79900e+03	0.0382055	689.5
1800	6.88362e+02	1.80000e+03	0.0381991	690.0
1801	6.88713e+02	1.80100e+03	0.0381878	690.5
1802	6.89047e+02	1.80200e+03	0.0381704	691.0
1803	6.89360e+02	1.80300e+03	0.0381487	691.5
1804	6.89671e+02	1.80400e+03	0.0381248	692.0
1805	6.89961e+02	1.80500e+03	0.0380991	692.5
1806	6.90256e+02	1.80600e+03	0.0380732	693.0
1807	6.90531e+02	1.80700e+03	0.0380479	693.5
1808	6.90801e+02	1.80800e+03	0.0380225	694.0
1809	6.91062e+02	1.80900e+03	0.0380068	694.5
1810	6.91320e+02	1.81000e+03	0.0379978	695.0
1811	6.91555e+02	1.81100e+03	0.0379926	695.5
1812	6.91807e+02	1.81200e+03	0.0380101	696.0
1813	6.92048e+02	1.81300e+03	0.0380218	696.5
1814	6.92275e+02	1.81400e+03	0.0380368	697.0
1815	6.92502e+02	1.81500e+03	0.0380553	697.5
1816	6.92716e+02	1.81600e+03	0.0380838	698.0
1817	6.92929e+02	1.81700e+03	0.0381066	698.5
1818	6.93130e+02	1.81800e+03	0.0381268	699.0
1819	6.93315e+02	1.81900e+03	0.0381449	699.5
1820	6.93510e+02	1.82000e+03	0.0381521	700.0
1821	6.93697e+02	1.82100e+03	0.0381548	700.0
1822	6.93878e+02	1.82200e+03	0.0381545	700.0
1823	6.94036e+02	1.82300e+03	0.0381531	700.0
1824	6.94201e+02	1.82400e+03	0.0381375	700.0
1825	6.94374e+02	1.82500e+03	0.0381326	700.0
1826	6.94531e+02	1.82600e+03	0.03813	700.0
1827	6.94682e+02	1.82700e+03	0.0381276	700.0
1828	6.94817e+02	1.82800e+03	0.0381307	700.0
1829	6.94967e+02	1.82900e+03	0.0381313	700.0
1830	6.95115e+02	1.83000e+03	0.0381332	700.0
1831	6.95244e+02	1.83100e+03	0.0381358	700.0
1832	6.95370e+02	1.83200e+03	0.0381377	700.0
1833	6.95517e+02	1.83300e+03	0.0381395	700.0
1834	6.95612e+02	1.83400e+03	0.0381392	700.0
1835	6.95710e+02	1.83500e+03	0.0381371	700.0
1836	6.95805e+02	1.83600e+03	0.0381292	700.0
1837	6.95919e+02	1.83700e+03	0.0381187	700.0
1838	6.96014e+02	1.83800e+03	0.038108	700.0
1839	6.96111e+02	1.83900e+03	0.0380978	700.0
1840	6.96212e+02	1.84000e+03	0.0380805	700.0
1841	6.96312e+02	1.84100e+03	0.0380722	700.0
1842	6.96403e+02	1.84200e+03	0.0380677	700.0
1843	6.96497e+02	1.84300e+03	0.0380641	700.0
1844	6.96591e+02	1.84400e+03	0.0380709	700.0
1845	6.96662e+02	1.84500e+03	0.0380729	700.0
1846	6.96761e+02	1.84600e+03	0.0380729	700.0
1847	6.96834e+02	1.84700e+03	0.0380726	700.0
1848	6.96926e+02	1.84800e+03	0.0380737	700.0
1849	6.97008e+02	1.84900e+03	0.0380749	700.0
1850	6.97079e+02	1.85000e+03	0.0380767	700.0
1851	6.97157e+02	1.85100e+03	0.038079	700.0
1852	6.97228e+02	1.85200e+03	0.0380814	700.0
1853	6.97301e+02	1.85300e+03	0.0380839	700.0
1854	6.97376e+02	1.85400e+03	0.0380865	700.0
1855	6.97440e+02	1.85500e+03	0.0380892	700.0
1856	6.97505e+02	1.85600e+03	0.038087	700.0
1857	6.97563e+02	1.85700e+03	0.0380819	700.0
1858	6.97628e+02	1.85800e+03	0.0380764	700.0
1859	6.97692e+02	1.85900e+03	0.0380713	700.0
1860	6.97753e+02	1.86000e+03	0.0380562	700.0
1861	6.97801e+02	1.86100e+03	0.0380433	700.0
1862	6.97854e+02	1.86200e+03	0.0380296	700.0
1863	6.97928e+02	1.86300e+03	0.0380146	700.0
1864	6.97978e+02	1.86400e+03	0.0379996	700.0
1865	6.98037e+02	1.86500e+03	0.0379894	700.0
1866	6.98085e+02	1.86600e+03	0.0379834	700.0
1867	6.98141e+02	1.86700e+03	0.0379803	700.0
1868	6.98198e+02	1.86800e+03	0.0379887	700.0
1869	6.98245e+02	1.86900e+03	0.0379966	700.0
1870	6.98281e+02	1.87000e+03	0.0380062	700.0
1871	6.98330e+02	1.87100e+03	0.0380172	700.0
1872	6.98381e+02	1.87200e+03	0.0380371	700.0
1873	6.98423e+02	1.87300e+03	0.0380506	700.0
1874	6.98453e+02	1.87400e+03	0.038062	700.0
1875	6.98498e+02	1.87500e+03	0.0380726	700.0
1876	6.98547e+02	1.87600e+03	0.0380776	700.0
1877	6.98573e+02	1.87700e+03	0.0380837	700.0
1878	6.98615e+02	1.87800e+03	0.0380889	700.0
1879	6.98649e+02	1.87900e+03	0.0380935	700.0
1880	6.98685e+02	1.88000e+03	0.0380939	700.0
1881	6.98725e+02	1.88100e+03	0.0380957	700.0
1882	6.98760e+02	1.88200e+03	0.0380973	700.0
1883	6.98790e+02	1.88300e+03	0.0380987	700.0
1884	6.98822e+02	1.88400e+03	0.0380983	700.0
1885	6.98858e+02	1.88500e+03	0.0380978	700.0
1886	6.98889e+02	1.88600e+03	0.0380964	700.0
1887	6.98915e+02	1.88700e+03	0.0380942	700.0
1888	6.98948e+02	1.88800e+03	0.0380887	700.0
1889	6.98973e+02	1.88900e+03	0.0380816	700.0
1890	6.99005e+02	1.89000e+03	0.038071	700.0
1891	6.99027e+02	1.89100e+03	0.0380589	700.0
1892	6.99055e+02	1.89200e+03	0.0380453	700.0
1893	6.99085e+02	1.89300e+03	0.0380369	700.0
1894	6.99111e+02	1.89400e+03	0.0380317	700.0
1895	6.99129e+02	1.89500e+03	0.0380285	700.0
1896	6.99156e+02	1.89600e+03	0.0380347	700.0
1897	6.99181e+02	1.89700e+03	0.0380394	700.0
1898	6.99198e+02	1.89800e+03	0.0380451	700.0
1899	6.99210e+02	1.89900e+03	0.0380517	700.0
1900	6.99251e+02	1.90000e+03	0.0380637	700.0
1901	6.99268e+02	1.90100e+03	0.0380718	700.0
1902	6.99295e+02	1.90200e+03	0.0380785	700.0
1903	6.99309e+02	1.90300e+03	0.0380848	700.0
1904	6.99334e+02	1.90400e+03	0.0380875	700.0
1905	6.99350e+02	1.90500e+03	0.0380909	700.0
1906	6.99363e+02	1.90600e+03	0.0380939	700.0
1907	6.99382e+02	1.90700e+03	0.0380965	700.0
1908	6.99397e+02	1.90800e+03	0.0380956	700.0
1909	6.99415e+02	1.90900e+03	0.0380942	700.0
1910	6.99433e+02	1.91000e+03	0.0380908	700.0
1911	6.99453e+02	1.91100e+03	0.0380859	700.0
1912	6.99475e+02	1.91200e+03	0.0380735	700.0
1913	6.99488e+02	1.91300e+03	0.0380635	700.0
1914	6.99503e+02	1.91400e+03	0.0380565	700.0
1915	6.99515e+02	1.91500e+03	0.0380514	700.0
1916	6.99532e+02	1.91600e+03	0.0380453	700.0
1917	6.99553e+02	1.91700e+03	0.0380423	700.0
1918	6.99573e+02	1.91800e+03	0.0380411	700.0
1919	6.99588e+02	1.91900e+03	0.0380407	700.0
1920	6.99592e+02	1.92000e+03	0.0380497	700.0
1921	6.99616e+02	1.92100e+03	0.0380554	700.0
1922	6.99623e+02	1.92200e+03	0.038061	700.0
1923	6.99635e+02	1.92300e+03	0.0380669	700.0
1924	6.99643e+02	1.92400e+03	0.038074	700.0
1925	6.99663e+02	1.92500e+03	0.0380794	700.0
1926	6.99678e+02	1.92600e+03	0.0380836	700.0
1927	6.99694e+02	1.92700e+03	0.0380869	700.0
1928	6.99698e+02	1.92800e+03	0.0380841	700.0
1929	6.99709e+02	1.92900e+03	0.0380797	700.0
1930	6.99721e+02	1.93000e+03	0.038072	700.0
1931	6.99735e+02	1.93100e+03	0.0380618	700.0
1932	6.99757e+02	1.93200e+03	0.0380379	700.0
1933	6.99763e+02	1.93300e+03	0.038016	700.0
1934	6.99773e+02	1.93400e+03	0.0379929	700.0
1935	6.99777e+02	1.93500e+03	0.0379686	700.0
1936	6.99791e+02	1.93600e+03	0.0379371	700.0
1937	6.99795e+02	1.93700e+03	0.0379128	700.0
1938	6.99815e+02	1.93800e+03	0.0378946	700.0
1939	6.99827e+02	1.93900e+03	0.037881	700.0
1940	6.99825e+02	1.94000e+03	0.0378807	700.0
1941	6.99839e+02	1.94100e+03	0.0378786	700.0
1942	6.99852e+02	1.94200e+03	0.0378776	700.0
1943	6.99859e+02	1.94300e+03	0.0378778	700.0
1944	6.99861e+02	1.94400e+03	0.0378894	700.0
1945	6.99881e+02	1.94500e+03	0.0378944	700.0
1946	6.99887e+02	1.94600e+03	0.0378986	700.0
1947	6.99893e+02	1.94700e+03	0.037903	700.0
1948	6.99898e+02	1.94800e+03	0.0379076	700.0
1949	6.99904e+02	1.94900e+03	0.0379151	700.0
1950	6.99918e+02	1.95000e+03	0.0379248	700.0
1951	6.99914e+02	1.95100e+03	0.0379357	700.0
1952	6.99918e+02	1.95200e+03	0.0379547	700.0
1953	6.99928e+02	1.95300e+03	0.0379717	700.0
1954	6.99941e+02	1.95400e+03	0.0379889	700.0
1955	6.99932e+02	1.95500e+03	0.0380063	700.0
1956	6.99952e+02	1.95600e+03	0.0380264	700.0
1957	6.99962e+02	1.95700e+03	0.0380466	700.0
1958	6.99963e+02	1.95800e+03	0.0380689	700.0
1959	6.99965e+02	1.95900e+03	0.0380917	700.0
1960	6.99971e+02	1.96000e+03	0.0381106	700.0
1961	6.99965e+02	1.96100e+03	0.0381267	700.0
1962	6.99984e+02	1.96200e+03	0.0381376	700.0
1963	6.99983e+02	1.96300e+03	0.0381433	700.0
1964	6.99982e+02	1.96400e+03	0.038132	700.0
1965	6.99993e+02	1.96500e+03	0.038123	700.0
1966	6.99998e+02	1.96600e+03	0.0381136	700.0
1967	6.99994e+02	1.96700e+03	0.0381037	700.0
1968	6.99992e+02	1.96800e+03	0.0380842	700.0
1969	7.00007e+02	1.96900e+03	0.0380765	700.0
1970	7.00012e+02	1.97000e+03	0.0380746	700.0
1971	7.00013e+02	1.97100e+03	0.0380763	700.0
1972	7.00013e+02	1.97200e+03	0.0381053	700.0
1973	7.00018e+02	1.97300e+03	0.0381334	700.0
1974	7.00025e+02	1.97400e+03	0.0381643	700.0
1975	7.00027e+02	1.97500e+03	0.0381974	700.0
1976	7.00030e+02	1.97600e+03	0.0382487	700.0
1977	7.00035e+02	1.97700e+03	0.0382854	700.0
1978	7.00036e+02	1.97800e+03	0.0383151	700.0
1979	7.00041e+02	1.97900e+03	0.0383409	700.0
1980	7.00040e+02	1.98000e+03	0.0383434	700.0
1981	7.00055e+02	1.98100e+03	0.0383445	700.0
1982	7.00052e+02	1.98200e+03	0.0383391	700.0
1983	7.00055e+02	1.98300e+03	0.0383287	700.0
1984	7.00058e+02	1.98400e+03	0.0382883	700.0
1985	7.00053e+02	1.98500e+03	0.0382584	700.0
1986	7.00062e+02	1.98600e+03	0.0382287	700.0
1987	7.00062e+02	1.98700e+03	0.0381979	700.0
1988	7.00070e+02	1.98800e+03	0.0381615	700.0
1989	7.00075e+02	1.98900e+03	0.0381311	700.0
1990	7.00071e+02	1.99000e+03	0.0381033	700.0
1991	7.00088e+02	1.99100e+03	0.0380765	700.0
1992	7.00085e+02	1.99200e+03	0.0380569	700.0
1993	7.00093e+02	1.99300e+03	0.038034	700.0
1994	7.00096e+02	1.99400e+03	0.0380101	700.0
1995	7.00089e+02	1.99500e+03	0.0379856	700.0
1996	7.00101e+02	1.99600e+03	0.0379591	700.0
1997	7.00103e+02	1.99700e+03	0.0379321	700.0
1998	7.00099e+02	1.99800e+03	0.0379085	700.0
1999	7.00101e+02	1.99900e+03	0.0378883	700.0
2000	7.00108e+02	2.00000e+03	0.0378748	700.0
2001	7.00111e+02	2.00100e+03	0.0378698	700.0
2002	7.00103e+02	2.00200e+03	0.0378716	700.0
2003	7.00106e+02	2.00300e+03	0.0378761	700.0
2004	7.00100e+02	2.00400e+03	0.0379034	700.0
2005	7.00109e+02	2.00500e+03	0.0379198	700.0
2006	7.00113e+02	2.00600e+03	0.037934	700.0
2007	7.00122e+02	2.00700e+03	0.037948	700.0
2008	7.00128e+02	2.00800e+03	0.0379605	700.0
2009	7.00115e+02	2.00900e+03	0.0379703	700.0
2010	7.00123e+02	2.01000e+03	0.0379774	700.0
2011	7.00125e+02	2.01100e+03	0.0379824	700.0
2012	7.00122e+02	2.01200e+03	0.0379759	700.0
2013	7.00125e+02	2.01300e+03	0.0379702	700.0
2014	7.00116e+02	2.01400e+03	0.0379622	700.0
2015	7.00125e+02	2.01500e+03	0.0379523	700.0
2016	7.00135e+02	2.01600e+03	0.0379322	700.0
2017	7.00127e+02	2.01700e+03	0.0379172	700.0
2018	7.00129e+02	2.01800e+03	0.0379038	700.0
2019	7.00121e+02	2.01900e+03	0.037891	700.0
2020	7.00136e+02	2.02000e+03	0.0378809	700.0
2021	7.00141e+02	2.02100e+03	0.0378718	700.0
2022	7.00133e+02	2.02200e+03	0.0378629	700.0
2023	7.00139e+02	2.02300e+03	0.0378538	700.0
2024	7.00139e+02	2.02400e+03	0.0378463	700.0
2025	7.00146e+02	2.02500e+03	0.0378348	700.0
2026	7.00140e+02	2.02600e+03	0.0378215	700.0
2027	7.00139e+02	2.02700e+03	0.0378074	700.0
2028	7.00147e+02	2.02800e+03	0.0377863	700.0
2029	7.00145e+02	2.02900e+03	0.0377682	700.0
2030	7.00149e+02	2.03000e+03	0.0377504	700.0
2031	7.00145e+02	2.03100e+03	0.0377324	700.0
2032	7.00150e+02	2.03200e+03	0.0377143	700.0
2033	7.00148e+02	2.03300e+03	0.0376979	700.0
2034	7.00154e+02	2.03400e+03	0.0376855	700.0
2035	7.00155e+02	2.03500e+03	0.0376773	700.0
2036	7.00153e+02	2.03600e+03	0.0376827	700.0
2037	7.00154e+02	2.03700e+03	0.0376911	700.0
2038	7.00151e+02	2.03800e+03	0.0377058	700.0
2039	7.00156e+02	2.03900e+03	0.0377244	700.0
2040	7.00166e+02	2.04000e+03	0.0377624	700.0
2041	7.00157e+02	2.04100e+03	0.0377889	700.0
2042	7.00163e+02	2.04200e+03	0.0378119	700.0
2043	7.00159e+02	2.04300e+03	0.0378338	700.0
2044	7.00172e+02	2.04400e+03	0.0378497	700.0
2045	7.00159e+02	2.04500e+03	0.0378645	700.0
2046	7.00162e+02	2.04600e+03	0.0378776	700.0
2047	7.00172e+02	2.04700e+03	0.0378897	700.0
2048	7.00166e+02	2.04800e+03	0.0378935	700.0
2049	7.00175e+02	2.04900e+03	0.0379002	700.0
2050	7.00169e+02	2.05000e+03	0.0379047	700.0
2051	7.00169e+02	2.05100e+03	0.0379067	700.0
2052	7.00164e+02	2.05200e+03	0.0378978	700.0
2053	7.00173e+02	2.05300e+03	0.0378871	700.0
2054	7.00174e+02	2.05400e+03	0.0378768	700.0
2055	7.00172e+02	2.05500e+03	0.0378673	700.0
2056	7.00170e+02	2.05600e+03	0.0378461	700.0
2057	7.00169e+02	2.05700e+03	0.0378345	700.0
2058	7.00171e+02	2.05800e+03	0.0378278	700.0
2059	7.00174e+02	2.05900e+03	0.0378237	700.0
2060	7.00177e+02	2.06000e+03	0.0378377	700.0
2061	7.00176e+02	2.06100e+03	0.0378498	700.0
2062	7.00178e+02	2.06200e+03	0.0378628	700.0
2063	7.00180e+02	2.06300e+03	0.0378765	700.0
2064	7.00180e+02	2.06400e+03	0.0378964	700.0
2065	7.00172e+02	2.06500e+03	0.0379056	700.0
2066	7.00171e+02	2.06600e+03	0.0379097	700.0
2067	7.00178e+02	2.06700e+03	0.0379111	700.0
2068	7.00177e+02	2.06800e+03	0.0378946	700.0
2069	7.00180e+02	2.06900e+03	0.0378842	700.0
2070	7.00181e+02	2.07000e+03	0.0378738	700.0
2071	7.00189e+02	2.07100e+03	0.0378626	700.0
2072	7.00188e+02	2.07200e+03	0.0378465	700.0
2073	7.00177e+02	2.07300e+03	0.0378332	700.0
2074	7.00180e+02	2.07400e+03	0.0378208	700.0
2075	7.00183e+02	2.07500e+03	0.0378088	700.0
2076	7.00178e+02	2.07600e+03	0.0378044	700.0
2077	7.00183e+02	2.07700e+03	0.0378016	700.0
2078	7.00184e+02	2.07800e+03	0.0377987	700.0
2079	7.00185e+02	2.07900e+03	0.0377956	700.0
2080	7.00188e+02	2.08000e+03	0.0377983	700.0
2081	7.00191e+02	2.08100e+03	0.0377956	700.0
2082	7.00185e+02	2.08200e+03	0.0377914	700.0
2083	7.00188e+02	2.08300e+03	0.0377868	700.0
2084	7.00192e+02	2.08400e+03	0.0377802	700.0
2085	7.00183e+02	2.08500e+03	0.0377814	700.0
2086	7.00190e+02	2.08600e+03	0.0377895	700.0
2087	7.00190e+02	2.08700e+03	0.037801	700.0
2088	7.00188e+02	2.08800e+03	0.0378268	700.0
2089	7.00193e+02	2.08900e+03	0.037849	700.0
2090	7.00188e+02	2.09000e+03	0.0378719	700.0
2091	7.00189e+02	2.09100e+03	0.0378957	700.0
2092	7.00185e+02	2.09200e+03	0.0379265	700.0
2093	7.00184e+02	2.09300e+03	0.0379526	700.0
2094	7.00188e+02	2.09400e+03	0.0379792	700.0
2095	7.00190e+02	2.09500e+03	0.0380063	700.0
2096	7.00185e+02	2.09600e+03	0.0380243	700.0
2097	7.00190e+02	2.09700e+03	0.0380425	700.0
2098	7.00183e+02	2.09800e+03	0.0380598	700.0
2099	7.00184e+02	2.09900e+03	0.0380753	700.0
2100	7.00185e+02	2.10000e+03	0.0380761	700.0
2101	7.00192e+02	2.10100e+03	0.0380764	700.0
2102	7.00180e+02	2.10200e+03	0.0380728	700.0
2103	7.00193e+02	2.10300e+03	0.0380661	700.0
2104	7.00190e+02	2.10400e+03	0.0380443	700.0
2105	7.00195e+02	2.10500e+03	0.0380285	700.0
2106	7.00187e+02	2.10600e+03	0.0380134	700.0
2107	7.00186e+02	2.10700e+03	0.0379985	700.0
2108	7.00189e+02	2.10800e+03	0.0379844	700.0
2109	7.00186e+02	2.10900e+03	0.0379752	700.0
2110	7.00184e+02	2.11000e+03	0.0379696	700.0
2111	7.00182e+02	2.11100e+03	0.0379664	700.0
2112	7.00196e+02	2.11200e+03	0.0379763	700.0
2113	7.00184e+02	2.11300e+03	0.0379827	700.0
2114	7.00190e+02	2.11400e+03	0.0379891	700.0
2115	7.00197e+02	2.11500e+03	0.037996	700.0
2116	7.00195e+02	2.11600e+03	0.0380058	700.0
2117	7.00187e+02	2.11700e+03	0.0380111	700.0
2118	7.00183e+02	2.11800e+03	0.0380144	700.0
2119	7.00194e+02	2.11900e+03	0.0380167	700.0
2120	7.00192e+02	2.12000e+03	0.0380122	700.0
2121	7.00186e+02	2.12100e+03	0.0380098	700.0
2122	7.00191e+02	2.12200e+03	0.0380067	700.0
2123	7.00193e+02	2.12300e+03	0.0380027	700.0
2124	7.00197e+02	2.12400e+03	0.0379947	700.0
2125	7.00191e+02	2.12500e+03	0.0379868	700.0
2126	7.00191e+02	2.12600e+03	0.0379778	700.0
2127	7.00194e+02	2.12700e+03	0.0379678	700.0
2128	7.00188e+02	2.12800e+03	0.0379526	700.0
2129	7.00184e+02	2.12900e+03	0.0379386	700.0
2130	7.00189e+02	2.13000e+03	0.0379242	700.0
2131	7.00193e+02	2.13100e+03	0.0379095	700.0
2132	7.00189e+02	2.13200e+03	0.0378934	700.0
2133	7.00192e+02	2.13300e+03	0.0378824	700.0
2134	7.00191e+02	2.13400e+03	0.0378768	700.0
2135	7.00194e+02	2.13500e+03	0.0378748	700.0
2136	7.00191e+02	2.13600e+03	0.0378823	700.0
2137	7.00191e+02	2.13700e+03	0.0378876	700.0
2138	7.00194e+02	2.13800e+03	0.0378923	700.0
2139	7.00188e+02	2.13900e+03	0.0378956	700.0
2140	7.00187e+02	2.14000e+03	0.0378966	700.0
2141	7.00183e+02	2.14100e+03	0.0378904	700.0
2142	7.00181e+02	2.14200e+03	0.0378808	700.0
2143	7.00189e+02	2.14300e+03	0.0378698	700.0
2144	7.00179e+02	2.14400e+03	0.0378477	700.0
2145	7.00187e+02	2.14500e+03	0.0378365	700.0
2146	7.00191e+02	2.14600e+03	0.0378294	700.0
2147	7.00178e+02	2.14700e+03	0.0378244	700.0
2148	7.00176e+02	2.14800e+03	0.0378328	700.0
2149	7.00185e+02	2.14900e+03	0.0378374	700.0
2150	7.00193e+02	2.15000e+03	0.0378421	700.0
2151	7.00185e+02	2.15100e+03	0.037847	700.0
2152	7.00184e+02	2.15200e+03	0.0378545	700.0
2153	7.00188e+02	2.15300e+03	0.0378568	700.0
2154	7.00184e+02	2.15400e+03	0.0378561	700.0
2155	7.00177e+02	2.15500e+03	0.0378535	700.0
2156	7.00172e+02	2.15600e+03	0.0378401	700.0
2157	7.00180e+02	2.15700e+03	0.0378288	700.0
2158	7.00180e+02	2.15800e+03	0.0378165	700.0
2159	7.00184e+02	2.15900e+03	0.0378034	700.0
2160	7.00182e+02	2.16000e+03	0.0377845	700.0
2161	7.00186e+02	2.16100e+03	0.0377708	700.0
2162	7.00186e+02	2.16200e+03	0.0377623	700.0
2163	7.00186e+02	2.16300e+03	0.0377578	700.0
2164	7.00177e+02	2.16400e+03	0.0377621	700.0
2165	7.00174e+02	2.16500e+03	0.0377651	700.0
2166	7.00173e+02	2.16600e+03	0.0377686	700.0
2167	7.00176e+02	2.16700e+03	0.0377726	700.0
2168	7.00185e+02	2.16800e+03	0.0377841	700.0
2169	7.00177e+02	2.16900e+03	0.0377901	700.0
2170	7.00175e+02	2.17000e+03	0.0377945	700.0
2171	7.00177e+02	2.17100e+03	0.0377983	700.0
2172	7.00180e+02	2.17200e+03	0.0377974	700.0
2173	7.00178e+02	2.17300e+03	0.0377983	700.0
2174	7.00174e+02	2.17400e+03	0.0377993	700.0
2175	7.00180e+02	2.17500e+03	0.0378	700.0
2176	7.00167e+02	2.17600e+03	0.0377997	700.0
2177	7.00185e+02	2.17700e+03	0.0377998	700.0
2178	7.00181e+02	2.17800e+03	0.0377999	700.0
2179	7.00172e+02	2.17900e+03	0.0378	700.0
2180	7.00176e+02	2.18000e+03	0.0378003	700.0
2181	7.00175e+02	2.18100e+03	0.0378027	700.0
2182	7.00180e+02	2.18200e+03	0.0378085	700.0
2183	7.00180e+02	2.18300e+03	0.0378161	700.0
2184	7.00170e+02	2.18400e+03	0.0378245	700.0
2185	7.00163e+02	2.18500e+03	0.0378295	700.0
2186	7.00163e+02	2.18600e+03	0.0378316	700.0
2187	7.00170e+02	2.18700e+03	0.0378319	700.0
2188	7.00169e+02	2.18800e+03	0.0378246	700.0
2189	7.00168e+02	2.18900e+03	0.0378168	700.0
2190	7.00172e+02	2.19000e+03	0.0378072	700.0
2191	7.00172e+02	2.19100e+03	0.0377964	700.0
2192	7.00170e+02	2.19200e+03	0.0377775	700.0
2193	7.00166e+02	2.19300e+03	0.0377637	700.0
2194	7.00173e+02	2.19400e+03	0.0377512	700.0
2195	7.00172e+02	2.19500e+03	0.037739	700.0
2196	7.00169e+02	2.19600e+03	0.0377292	700.0
2197	7.00166e+02	2.19700e+03	0.0377185	700.0
2198	7.00168e+02	2.19800e+03	0.0377076	700.0
2199	7.00159e+02	2.19900e+03	0.0376967	700.0
2200	7.00161e+02	2.20000e+03	0.0376858	700.0
2201	7.00163e+02	2.20100e+03	0.0376744	700.0
2202	7.00162e+02	2.20200e+03	0.0376631	700.0
2203	7.00159e+02	2.20300e+03	0.0376519	700.0
2204	7.00161e+02	2.20400e+03	0.0376413	700.0
2205	7.00164e+02	2.20500e+03	0.0376322	700.0
2206	7.00161e+02	2.20600e+03	0.0376242	700.0
2207	7.00157e+02	2.20700e+03	0.0376169	700.0
2208	7.00158e+02	2.20800e+03	0.0376186	700.0
2209	7.00156e+02	2.20900e+03	0.0376251	700.0
2210	7.00153e+02	2.21000e+03	0.0376378	700.0
2211	7.00158e+02	2.21100e+03	0.0376537	700.0
2212	7.00148e+02	2.21200e+03	0.0376882	700.0
2213	7.00150e+02	2.21300e+03	0.037718	700.0
2214	7.00154e+02	2.21400e+03	0.0377483	700.0
2215	7.00150e+02	2.21500e+03	0.0377794	700.0
2216	7.00158e+02	2.21600e+03	0.0378166	700.0
2217	7.00153e+02	2.21700e+03	0.0378459	700.0
2218	7.00146e+02	2.21800e+03	0.0378713	700.0
2219	7.00152e+02	2.21900e+03	0.0378951	700.0
2220	7.00151e+02	2.22000e+03	0.0379069	700.0
2221	7.00149e+02	2.22100e+03	0.0379184	700.0
2222	7.00143e+02	2.22200e+03	0.0379237	700.0
2223	7.00147e+02	2.22300e+03	0.037924	700.0
2224	7.00150e+02	2.22400e+03	0.0379027	700.0
2225	7.00149e+02	2.22500e+03	0.037882	700.0
2226	7.00154e+02	2.22600e+03	0.0378571	700.0
2227	7.00147e+02	2.22700e+03	0.037829	700.0
2228	7.00145e+02	2.22800e+03	0.0377808	700.0
2229	7.00144e+02	2.22900e+03	0.0377434	700.0
2230	7.00147e+02	2.23000e+03	0.0377086	700.0
2231	7.00149e+02	2.23100e+03	0.0376744	700.0
2232	7.00142e+02	2.23200e+03	0.0376453	700.0
2233	7.00137e+02	2.23300e+03	0.0376175	700.0
2234	7.00144e+02	2.23400e+03	0.0375923	700.0
2235	7.00146e+02	2.23500e+03	0.0375688	700.0
2236	7.00145e+02	2.23600e+03	0.0375567	700.0
2237	7.00152e+02	2.23700e+03	0.037545	700.0
2238	7.00148e+02	2.23800e+03	0.0375392	700.0
2239	7.00139e+02	2.23900e+03	0.0375379	700.0
2240	7.00145e+02	2.24000e+03	0.0375496	700.0
2241	7.00137e+02	2.24100e+03	0.0375565	700.0
2242	7.00145e+02	2.24200e+03	0.037563	700.0
2243	7.00147e+02	2.24300e+03	0.0375697	700.0
2244	7.00135e+02	2.24400e+03	0.0375806	700.0
2245	7.00142e+02	2.24500e+03	0.0375874	700.0
2246	7.00136e+02	2.24600e+03	0.0375926	700.0
2247	7.00135e+02	2.24700e+03	0.037597	700.0
2248	7.00138e+02	2.24800e+03	0.0375963	700.0
2249	7.00140e+02	2.24900e+03	0.0375976	700.0
2250	7.00140e+02	2.25000e+03	0.0375991	700.0
2251	7.00140e+02	2.25100e+03	0.0376009	700.0
2252	7.00141e+02	2.25200e+03	0.0376085	700.0
2253	7.00121e+02	2.25300e+03	0.0376202	700.0
2254	7.00132e+02	2.25400e+03	0.0376368	700.0
2255	7.00132e+02	2.25500e+03	0.0376568	700.0
2256	7.00129e+02	2.25600e+03	0.0376881	700.0
2257	7.00133e+02	2.25700e+03	0.0377115	700.0
2258	7.00132e+02	2.25800e+03	0.0377317	700.0
2259	7.00123e+02	2.25900e+03	0.0377501	700.0
2260	7.00131e+02	2.26000e+03	0.0377614	700.0
2261	7.00132e+02	2.26100e+03	0.0377699	700.0
2262	7.00130e+02	2.26200e+03	0.0377742	700.0
2263	7.00123e+02	2.26300e+03	0.0377754	700.0
2264	7.00135e+02	2.26400e+03	0.0377579	700.0
2265	7.00136e+02	2.26500e+03	0.0377435	700.0
2266	7.00133e+02	2.26600e+03	0.0377269	700.0
2267	7.00131e+02	2.26700e+03	0.0377082	700.0
2268	7.00134e+02	2.26800e+03	0.0376776	700.0
2269	7.00128e+02	2.26900e+03	0.0376535	700.0
2270	7.00124e+02	2.27000e+03	0.0376318	700.0
2271	7.00129e+02	2.27100e+03	0.0376112	700.0
2272	7.00128e+02	2.27200e+03	0.0375971	700.0
2273	7.00134e+02	2.27300e+03	0.0375857	700.0
2274	7.00127e+02	2.27400e+03	0.0375775	700.0
2275	7.00131e+02	2.27500e+03	0.0375715	700.0
2276	7.00123e+02	2.27600e+03	0.0375805	700.0
2277	7.00127e+02	2.27700e+03	0.0375859	700.0
2278	7.00128e+02	2.27800e+03	0.0375932	700.0
2279	7.00125e+02	2.27900e+03	0.0376025	700.0
2280	7.00129e+02	2.28000e+03	0.0376268	700.0
2281	7.00120e+02	2.28100e+03	0.0376521	700.0
2282	7.00121e+02	2.28200e+03	0.0376793	700.0
2283	7.00122e+02	2.28300e+03	0.037707	700.0
2284	7.00121e+02	2.28400e+03	0.0377418	700.0
2285	7.00125e+02	2.28500e+03	0.0377659	700.0
2286	7.00125e+02	2.28600e+03	0.0377833	700.0
2287	7.00123e+02	2.28700e+03	0.0377968	700.0
2288	7.00121e+02	2.28800e+03	0.0377869	700.0
2289	7.00119e+02	2.28900e+03	0.0377782	700.0
2290	7.00120e+02	2.29000e+03	0.0377645	700.0
2291	7.00126e+02	2.29100e+03	0.0377467	700.0
2292	7.00124e+02	2.29200e+03	0.0377048	700.0
2293	7.00122e+02	2.29300e+03	0.0376713	700.0
2294	7.00121e+02	2.29400e+03	0.0376381	700.0
2295	7.00120e+02	2.29500e+03	0.0376042	700.0
2296	7.00120e+02	2.29600e+03	0.0375668	700.0
2297	7.00112e+02	2.29700e+03	0.0375351	700.0
2298	7.00116e+02	2.29800e+03	0.0375066	700.0
2299	7.00122e+02	2.29900e+03	0.03748	700.0
2300	7.00118e+02	2.30000e+03	0.0374652	700.0
2301	7.00109e+02	2.30100e+03	0.0374508	700.0
2302	7.00115e+02	2.30200e+03	0.0374437	700.0
2303	7.00111e+02	2.30300e+03	0.0374424	700.0
2304	7.00104e+02	2.30400e+03	0.0374582	700.0
2305	7.00110e+02	2.30500e+03	0.0374697	700.0
2306	7.00106e+02	2.30600e+03	0.037482	700.0
2307	7.00115e+02	2.30700e+03	0.0374953	700.0
2308	7.00108e+02	2.30800e+03	0.0375186	700.0
2309	7.00110e+02	2.30900e+03	0.0375348	700.0
2310	7.00117e+02	2.31000e+03	0.0375488	700.0
2311	7.00119e+02	2.31100e+03	0.037562	700.0
2312	7.00107e+02	2.31200e+03	0.0375686	700.0
2313	7.00118e+02	2.31300e+03	0.0375764	700.0
2314	7.00117e+02	2.31400e+03	0.0375833	700.0
2315	7.00113e+02	2.31500e+03	0.0375894	700.0
2316	7.00110e+02	2.31600e+03	0.0375936	700.0
2317	7.00117e+02	2.31700e+03	0.0376034	700.0
2318	7.00109e+02	2.31800e+03	0.0376159	700.0
2319	7.00109e+02	2.31900e+03	0.0376288	700.0
2320	7.00109e+02	2.32000e+03	0.0376457	700.0
2321	7.00111e+02	2.32100e+03	0.0376597	700.0
2322	7.00113e+02	2.32200e+03	0.0376728	700.0
2323	7.00110e+02	2.32300e+03	0.0376858	700.0
2324	7.00109e+02	2.32400e+03	0.037694	700.0
2325	7.00106e+02	2.32500e+03	0.0376988	700.0
2326	7.00106e+02	2.32600e+03	0.0377007	700.0
2327	7.00107e+02	2.32700e+03	0.0377018	700.0
2328	7.00106e+02	2.32800e+03	0.0376953	700.0
2329	7.00093e+02	2.32900e+03	0.0376921	700.0
2330	7.00106e+02	2.33000e+03	0.0376895	700.0
2331	7.00107e+02	2.33100e+03	0.0376881	700.0
2332	7.00106e+02	2.33200e+03	0.0376893	700.0
2333	7.00098e+02	2.33300e+03	0.03769	700.0
2334	7.00091e+02	2.33400e+03	0.0376892	700.0
2335	7.00107e+02	2.33500e+03	0.0376872	700.0
2336	7.00105e+02	2.33600e+03	0.0376846	700.0
2337	7.00101e+02	2.33700e+03	0.037679	700.0
2338	7.00110e+02	2.33800e+03	0.0376739	700.0
2339	7.00105e+02	2.33900e+03	0.0376706	700.0
2340	7.00102e+02	2.34000e+03	0.0376649	700.0
2341	7.00100e+02	2.34100e+03	0.0376622	700.0
2342	7.00105e+02	2.34200e+03	0.0376596	700.0
2343	7.00103e+02	2.34300e+03	0.0376566	700.0
2344	7.00102e+02	2.34400e+03	0.0376577	700.0
2345	7.00106e+02	2.34500e+03	0.0376541	700.0
2346	7.00100e+02	2.34600e+03	0.0376489	700.0
2347	7.00100e+02	2.34700e+03	0.0376431	700.0
2348	7.00101e+02	2.34800e+03	0.0376372	700.0
2349	7.00097e+02	2.34900e+03	0.0376385	700.0
2350	7.00104e+02	2.35000e+03	0.0376429	700.0
2351	7.00106e+02	2.35100e+03	0.0376483	700.0
2352	7.00096e+02	2.35200e+03	0.0376631	700.0
2353	7.00092e+02	2.35300e+03	0.0376719	700.0
2354	7.00097e+02	2.35400e+03	0.0376797	700.0
2355	7.00094e+02	2.35500e+03	0.0376884	700.0
2356	7.00102e+02	2.35600e+03	0.0376994	700.0
2357	7.00104e+02	2.35700e+03	0.0377103	700.0
2358	7.00101e+02	2.35800e+03	0.0377195	700.0
2359	7.00087e+02	2.35900e+03	0.0377275	700.0
2360	7.00103e+02	2.36000e+03	0.0377339	700.0
2361	7.00101e+02	2.36100e+03	0.0377357	700.0
2362	7.00099e+02	2.36200e+03	0.0377339	700.0
2363	7.00097e+02	2.36300e+03	0.0377298	700.0
2364	7.00097e+02	2.36400e+03	0.0377109	700.0
2365	7.00098e+02	2.36500e+03	0.037695	700.0
2366	7.00102e+02	2.36600e+03	0.037677	700.0
2367	7.00099e+02	2.36700e+03	0.0376571	700.0
2368	7.00094e+02	2.36800e+03	0.0376276	700.0
2369	7.00096e+02	2.36900e+03	0.0376023	700.0
2370	7.00093e+02	2.37000e+03	0.0375786	700.0
2371	7.00094e+02	2.37100e+03	0.0375559	700.0
2372	7.00095e+02	2.37200e+03	0.0375388	700.0
2373	7.00104e+02	2.37300e+03	0.0375266	700.0
2374	7.00089e+02	2.37400e+03	0.0375194	700.0
2375	7.00095e+02	2.37500e+03	0.0375156	700.0
2376	7.00098e+02	2.37600e+03	0.0375325	700.0
2377	7.00095e+02	2.37700e+03	0.0375455	700.0
2378	7.00094e+02	2.37800e+03	0.0375609	700.0
2379	7.00097e+02	2.37900e+03	0.0375787	700.0
2380	7.00097e+02	2.38000e+03	0.0376089	700.0
2381	7.00091e+02	2.38100e+03	0.0376324	700.0
2382	7.00087e+02	2.38200e+03	0.0376537	700.0
2383	7.00088e+02	2.38300e+03	0.0376741	700.0
2384	7.00094e+02	2.38400e+03	0.0376941	700.0
2385	7.00083e+02	2.38500e+03	0.0377151	700.0
2386	7.00086e+02	2.38600e+03	0.0377346	700.0
2387	7.00096e+02	2.38700e+03	0.0377522	700.0
2388	7.00095e+02	2.38800e+03	0.0377622	700.0
2389	7.00092e+02	2.38900e+03	0.0377693	700.0
2390	7.00090e+02	2.39000e+03	0.037772	700.0
2391	7.00088e+02	2.39100e+03	0.0377716	700.0
2392	7.00102e+02	2.39200e+03	0.0377542	700.0
2393	7.00092e+02	2.39300e+03	0.037741	700.0
2394	7.00093e+02	2.39400e+03	0.0377273	700.0
2395	7.00095e+02	2.39500e+03	0.0377129	700.0
2396	7.00094e+02	2.39600e+03	0.0376935	700.0
2397	7.00093e+02	2.39700e+03	0.0376805	700.0
2398	7.00091e+02	2.39800e+03	0.0376703	700.0
2399	7.00096e+02	2.39900e+03	0.0376615	700.0
2400	7.00101e+02	2.40000e+03	0.0376617	700.0
2401	7.00094e+02	2.40100e+03	0.0376599	700.0
2402	7.00094e+02	2.40200e+03	0.0376618	700.0
2403	7.00085e+02	2.40300e+03	0.0376672	700.0
2404	7.00097e+02	2.40400e+03	0.0376779	700.0
2405	7.00100e+02	2.40500e+03	0.0376844	700.0
2406	7.00090e+02	2.40600e+03	0.0376886	700.0
2407	7.00085e+02	2.40700e+03	0.0376914	700.0
2408	7.00093e+02	2.40800e+03	0.0376909	700.0
2409	7.00095e+02	2.40900e+03	0.0376881	700.0
2410	7.00095e+02	2.41000e+03	0.0376834	700.0
2411	7.00092e+02	2.41100e+03	0.0376775	700.0
2412	7.00089e+02	2.41200e+03	0.0376646	700.0
2413	7.00084e+02	2.41300e+03	0.0376568	700.0
2414	7.00089e+02	2.41400e+03	0.0376512	700.0
2415	7.00092e+02	2.41500e+03	0.0376465	700.0
2416	7.00086e+02	2.41600e+03	0.0376481	700.0
2417	7.00089e+02	2.41700e+03	0.0376498	700.0
2418	7.00091e+02	2.41800e+03	0.0376528	700.0
2419	7.00092e+02	2.41900e+03	0.0376567	700.0
2420	7.00091e+02	2.42000e+03	0.0376664	700.0
2421	7.00081e+02	2.42100e+03	0.0376727	700.0
2422	7.00084e+02	2.42200e+03	0.0376779	700.0
2423	7.00091e+02	2.42300e+03	0.0376827	700.0
2424	7.00085e+02	2.42400e+03	0.0376836	700.0
2425	7.00089e+02	2.42500e+03	0.0376833	700.0
2426	7.00088e+02	2.42600e+03	0.0376824	700.0
2427	7.00092e+02	2.42700e+03	0.0376825	700.0
2428	7.00081e+02	2.42800e+03	0.0376788	700.0
2429	7.00081e+02	2.42900e+03	0.0376753	700.0
2430	7.00082e+02	2.43000e+03	0.0376695	700.0
2431	7.00083e+02	2.43100e+03	0.0376619	700.0
2432	7.00079e+02	2.43200e+03	0.0376508	700.0
2433	7.00081e+02	2.43300e+03	0.0376391	700.0
2434	7.00087e+02	2.43400e+03	0.037627	700.0
2435	7.00084e+02	2.43500e+03	0.0376151	700.0
2436	7.00075e+02	2.43600e+03	0.0376023	700.0
2437	7.00071e+02	2.43700e+03	0.0375954	700.0
2438	7.00078e+02	2.43800e+03	0.0375922	700.0
2439	7.00085e+02	2.43900e+03	0.037591	700.0
2440	7.00065e+02	2.44000e+03	0.0375999	700.0
2441	7.00072e+02	2.44100e+03	0.0375999	700.0
2442	7.00073e+02	2.44200e+03	0.0375959	700.0
2443	7.00072e+02	2.44300e+03	0.0375912	700.0
2444	7.00067e+02	2.44400e+03	0.0375845	700.0
2445	7.00065e+02	2.44500e+03	0.037583	700.0
2446	7.00073e+02	2.44600e+03	0.0375864	700.0
2447	7.00076e+02	2.44700e+03	0.0375932	700.0
2448	7.00070e+02	2.44800e+03	0.0376093	700.0
2449	7.00067e+02	2.44900e+03	0.0376233	700.0
2450	7.00078e+02	2.45000e+03	0.0376367	700.0
2451	7.00071e+02	2.45100e+03	0.0376496	700.0
2452	7.00073e+02	2.45200e+03	0.0376679	700.0
2453	7.00067e+02	2.45300e+03	0.0376797	700.0
2454	7.00077e+02	2.45400e+03	0.0376887	700.0
2455	7.00070e+02	2.45500e+03	0.0376964	700.0
2456	7.00072e+02	2.45600e+03	0.0376946	700.0
2457	7.00072e+02	2.45700e+03	0.0376965	700.0
2458	7.00067e+02	2.45800e+03	0.0376985	700.0
2459	7.00061e+02	2.45900e+03	0.0377	700.0
2460	7.00066e+02	2.46000e+03	0.037694	700.0
2461	7.00073e+02	2.46100e+03	0.0376855	700.0
2462	7.00069e+02	2.46200e+03	0.0376752	700.0
2463	7.00068e+02	2.46300e+03	0.0376644	700.0
2464	7.00064e+02	2.46400e+03	0.0376454	700.0
2465	7.00072e+02	2.46500e+03	0.0376311	700.0
2466	7.00067e+02	2.46600e+03	0.0376179	700.0
2467	7.00067e+02	2.46700e+03	0.0376049	700.0
2468	7.00062e+02	2.46800e+03	0.037596	700.0
2469	7.00067e+02	2.46900e+03	0.0375906	700.0
2470	7.00070e+02	2.47000e+03	0.0375884	700.0
2471	7.00064e+02	2.47100e+03	0.0375871	700.0
2472	7.00058e+02	2.47200e+03	0.0375975	700.0
2473	7.00062e+02	2.47300e+03	0.0376069	700.0
2474	7.00063e+02	2.47400e+03	0.0376158	700.0
2475	7.00069e+02	2.47500e+03	0.0376241	700.0
2476	7.00063e+02	2.47600e+03	0.0376352	700.0
2477	7.00063e+02	2.47700e+03	0.0376405	700.0
2478	7.00069e+02	2.47800e+03	0.0376435	700.0
2479	7.00069e+02	2.47900e+03	0.0376456	700.0
2480	7.00069e+02	2.48000e+03	0.0376403	700.0
2481	7.00061e+02	2.48100e+03	0.0376401	700.0
2482	7.00060e+02	2.48200e+03	0.0376408	700.0
2483	7.00062e+02	2.48300e+03	0.0376416	700.0
2484	7.00059e+02	2.48400e+03	0.0376412	700.0
2485	7.00061e+02	2.48500e+03	0.0376349	700.0
2486	7.00069e+02	2.48600e+03	0.0376247	700.0
2487	7.00065e+02	2.48700e+03	0.0376134	700.0
2488	7.00065e+02	2.48800e+03	0.0375931	700.0
2489	7.00057e+02	2.48900e+03	0.0375775	700.0
2490	7.00062e+02	2.49000e+03	0.0375631	700.0
2491	7.00066e+02	2.49100e+03	0.0375494	700.0
2492	7.00056e+02	2.49200e+03	0.0375382	700.0
2493	7.00054e+02	2.49300e+03	0.0375313	700.0
2494	7.00062e+02	2.49400e+03	0.0375303	700.0
2495	7.00060e+02	2.49500e+03	0.0375328	700.0
2496	7.00062e+02	2.49600e+03	0.037546	700.0
2497	7.00061e+02	2.49700e+03	0.0375546	700.0
2498	7.00063e+02	2.49800e+03	0.0375623	700.0
2499	7.00057e+02	2.49900e+03	0.0375696	700.0
2500	7.00059e+02	2.50000e+03	0.0375773	700.0
2501	7.00061e+02	2.50100e+03	0.0375808	700.0
2502	7.00059e+02	2.50200e+03	0.0375816	700.0
2503	7.00061e+02	2.50300e+03	0.037581	700.0
2504	7.00058e+02	2.50400e+03	0.0375721	700.0
2505	7.00056e+02	2.50500e+03	0.0375707	700.0
2506	7.00056e+02	2.50600e+03	0.0375727	700.0
2507	7.00060e+02	2.50700e+03	0.0375752	700.0
2508	7.00066e+02	2.50800e+03	0.0375804	700.0
2509	7.00052e+02	2.50900e+03	0.0375845	700.0
2510	7.00051e+02	2.51000e+03	0.0375883	700.0
2511	7.00051e+02	2.51100e+03	0.0375921	700.0
2512	7.00048e+02	2.51200e+03	0.0375984	700.0
2513	7.00054e+02	2.51300e+03	0.0376043	700.0
2514	7.00054e+02	2.51400e+03	0.0376106	700.0
2515	7.00048e+02	2.51500e+03	0.0376173	700.0
2516	7.00058e+02	2.51600e+03	0.0376252	700.0
2517	7.00067e+02	2.51700e+03	0.037632	700.0
2518	7.00060e+02	2.51800e+03	0.0376378	700.0
2519	7.00048e+02	2.51900e+03	0.0376428	700.0
2520	7.00049e+02	2.52000e+03	0.0376438	700.0
2521	7.00059e+02	2.52100e+03	0.0376435	700.0
2522	7.00056e+02	2.52200e+03	0.0376418	700.0
2523	7.00052e+02	2.52300e+03	0.0376391	700.0
2524	7.00051e+02	2.52400e+03	0.0376303	700.0
2525	7.00049e+02	2.52500e+03	0.0376249	700.0
2526	7.00041e+02	2.52600e+03	0.0376202	700.0
2527	7.00047e+02	2.52700e+03	0.0376156	700.0
2528	7.00046e+02	2.52800e+03	0.0376123	700.0
2529	7.00049e+02	2.52900e+03	0.0376092	700.0
2530	7.00054e+02	2.53000e+03	0.0376063	700.0
2531	7.00046e+02	2.53100e+03	0.0376036	700.0
2532	7.00049e+02	2.53200e+03	0.0376016	700.0
2533	7.00040e+02	2.53300e+03	0.0376005	700.0
2534	7.00040e+02	2.53400e+03	0.0376026	700.0
2535	7.00051e+02	2.53500e+03	0.0376067	700.0
2536	7.00057e+02	2.53600e+03	0.037613	700.0
2537	7.00057e+02	2.53700e+03	0.037622	700.0
2538	7.00042e+02	2.53800e+03	0.0376336	700.0
2539	7.00047e+02	2.53900e+03	0.0376452	700.0
2540	7.00053e+02	2.54000e+03	0.0376608	700.0
2541	7.00042e+02	2.54100e+03	0.0376721	700.0
2542	7.00048e+02	2.54200e+03	0.0376812	700.0
2543	7.00052e+02	2.54300e+03	0.0376893	700.0
2544	7.00044e+02	2.54400e+03	0.0376919	700.0
2545	7.00041e+02	2.54500e+03	0.0376953	700.0
2546	7.00045e+02	2.54600e+03	0.0376978	700.0
2547	7.00044e+02	2.54700e+03	0.0376991	700.0
2548	7.00051e+02	2.54800e+03	0.037695	700.0
2549	7.00046e+02	2.54900e+03	0.0376924	700.0
2550	7.00045e+02	2.55000e+03	0.0376902	700.0
2551	7.00053e+02	2.55100e+03	0.0376883	700.0
2552	7.00043e+02	2.55200e+03	0.0376869	700.0
2553	7.00044e+02	2.55300e+03	0.0376888	700.0
2554	7.00036e+02	2.55400e+03	0.0376948	700.0
2555	7.00048e+02	2.55500e+03	0.0377049	700.0
2556	7.00045e+02	2.55600e+03	0.0377325	700.0
2557	7.00047e+02	2.55700e+03	0.0377591	700.0
2558	7.00043e+02	2.55800e+03	0.03779	700.0
2559	7.00050e+02	2.55900e+03	0.0378243	700.0
2560	7.00051e+02	2.56000e+03	0.037871	700.0
2561	7.00046e+02	2.56100e+03	0.037905	700.0
2562	7.00037e+02	2.56200e+03	0.0379329	700.0
2563	7.00042e+02	2.56300e+03	0.0379576	700.0
2564	7.00046e+02	2.56400e+03	0.0379633	700.0
2565	7.00043e+02	2.56500e+03	0.0379657	700.0
2566	7.00039e+02	2.56600e+03	0.0379588	700.0
2567	7.00044e+02	2.56700e+03	0.0379458	700.0
2568	7.00038e+02	2.56800e+03	0.0379046	700.0
2569	7.00035e+02	2.56900e+03	0.0378723	700.0
2570	7.00044e+02	2.57000e+03	0.0378399	700.0
2571	7.00042e+02	2.57100e+03	0.0378065	700.0
2572	7.00032e+02	2.57200e+03	0.0377648	700.0
2573	7.00036e+02	2.57300e+03	0.0377316	700.0
2574	7.00041e+02	2.57400e+03	0.0377018	700.0
2575	7.00048e+02	2.57500e+03	0.0376734	700.0
2576	7.00042e+02	2.57600e+03	0.0376561	700.0
2577	7.00039e+02	2.57700e+03	0.0376359	700.0
2578	7.00041e+02	2.57800e+03	0.0376172	700.0
2579	7.00039e+02	2.57900e+03	0.0376	700.0
2580	7.00045e+02	2.58000e+03	0.0375909	700.0
2581	7.00047e+02	2.58100e+03	0.0375814	700.0
2582	7.00040e+02	2.58200e+03	0.0375749	700.0
2583	7.00036e+02	2.58300e+03	0.0375721	700.0
2584	7.00038e+02	2.58400e+03	0.0375884	700.0
2585	7.00039e+02	2.58500e+03	0.0376054	700.0
2586	7.00036e+02	2.58600e+03	0.0376255	700.0
2587	7.00034e+02	2.58700e+03	0.0376479	700.0
2588	7.00038e+02	2.58800e+03	0.0376898	700.0
2589	7.00035e+02	2.58900e+03	0.0377205	700.0
2590	7.00032e+02	2.59000e+03	0.0377476	700.0
2591	7.00033e+02	2.59100e+03	0.0377733	700.0
2592	7.00037e+02	2.59200e+03	0.0377899	700.0
2593	7.00035e+02	2.59300e+03	0.0378051	700.0
2594	7.00025e+02	2.59400e+03	0.0378171	700.0
2595	7.00035e+02	2.59500e+03	0.0378267	700.0
2596	7.00035e+02	2.59600e+03	0.0378222	700.0
2597	7.00037e+02	2.59700e+03	0.0378222	700.0
2598	7.00031e+02	2.59800e+03	0.0378216	700.0
2599	7.00026e+02	2.59900e+03	0.03782	700.0
2600	7.00031e+02	2.60000e+03	0.0378121	700.0
2601	7.00027e+02	2.60100e+03	0.0378055	700.0
2602	7.00032e+02	2.60200e+03	0.0377959	700.0
2603	7.00029e+02	2.60300e+03	0.0377826	700.0
2604	7.00029e+02	2.60400e+03	0.0377592	700.0
2605	7.00037e+02	2.60500e+03	0.0377374	700.0
2606	7.00034e+02	2.60600e+03	0.0377161	700.0
2607	7.00031e+02	2.60700e+03	0.0376949	700.0
2608	7.00030e+02	2.60800e+03	0.0376687	700.0
2609	7.00035e+02	2.60900e+03	0.0376498	700.0
2610	7.00034e+02	2.61000e+03	0.0376344	700.0
2611	7.00020e+02	2.61100e+03	0.0376207	700.0
2612	7.00028e+02	2.61200e+03	0.0376203	700.0
2613	7.00031e+02	2.61300e+03	0.0376169	700.0
2614	7.00023e+02	2.61400e+03	0.0376151	700.0
2615	7.00026e+02	2.61500e+03	0.0376149	700.0
2616	7.00031e+02	2.61600e+03	0.0376238	700.0
2617	7.00023e+02	2.61700e+03	0.0376321	700.0
2618	7.00029e+02	2.61800e+03	0.0376444	700.0
2619	7.00022e+02	2.61900e+03	0.0376595	700.0
2620	7.00024e+02	2.62000e+03	0.0376792	700.0
2621	7.00023e+02	2.62100e+03	0.0376937	700.0
2622	7.00025e+02	2.62200e+03	0.037707	700.0
2623	7.00025e+02	2.62300e+03	0.0377214	700.0
2624	7.00028e+02	2.62400e+03	0.0377348	700.0
2625	7.00032e+02	2.62500e+03	0.0377452	700.0
2626	7.00034e+02	2.62600e+03	0.037749	700.0
2627	7.00029e+02	2.62700e+03	0.0377469	700.0
2628	7.00026e+02	2.62800e+03	0.0377308	700.0
2629	7.00034e+02	2.62900e+03	0.0377144	700.0
2630	7.00026e+02	2.63000e+03	0.0376965	700.0
2631	7.00021e+02	2.63100e+03	0.0376776	700.0
2632	7.00021e+02	2.63200e+03	0.0376455	700.0
2633	7.00022e+02	2.63300e+03	0.0376256	700.0
2634	7.00021e+02	2.63400e+03	0.0376104	700.0
2635	7.00028e+02	2.63500e+03	0.0375971	700.0
2636	7.00032e+02	2.63600e+03	0.0375989	700.0
2637	7.00031e+02	2.63700e+03	0.0375971	700.0
2638	7.00023e+02	2.63800e+03	0.0375975	700.0
2639	7.00032e+02	2.63900e+03	0.0376002	700.0
2640	7.00029e+02	2.64000e+03	0.0376143	700.0
2641	7.00022e+02	2.64100e+03	0.0376268	700.0
2642	7.00026e+02	2.64200e+03	0.0376407	700.0
2643	7.00025e+02	2.64300e+03	0.037656	700.0
2644	7.00031e+02	2.64400e+03	0.0376784	700.0
2645	7.00034e+02	2.64500e+03	0.0376956	700.0
2646	7.00020e+02	2.64600e+03	0.0377105	700.0
2647	7.00023e+02	2.64700e+03	0.0377239	700.0
2648	7.00025e+02	2.64800e+03	0.0377286	700.0
2649	7.00027e+02	2.64900e+03	0.0377312	700.0
2650	7.00023e+02	2.65000e+03	0.0377304	700.0
2651	7.00019e+02	2.65100e+03	0.0377273	700.0
2652	7.00025e+02	2.65200e+03	0.0377099	700.0
2653	7.00016e+02	2.65300e+03	0.0376981	700.0
2654	7.00014e+02	2.65400e+03	0.0376876	700.0
2655	7.00021e+02	2.65500e+03	0.0376773	700.0
2656	7.00024e+02	2.65600e+03	0.0376679	700.0
2657	7.00017e+02	2.65700e+03	0.037662	700.0
2658	7.00025e+02	2.65800e+03	0.037658	700.0
2659	7.00023e+02	2.65900e+03	0.0376549	700.0
2660	7.00023e+02	2.66000e+03	0.0376594	700.0
2661	7.00017e+02	2.66100e+03	0.0376604	700.0
2662	7.00013e+02	2.66200e+03	0.0376617	700.0
2663	7.00014e+02	2.66300e+03	0.0376638	700.0
2664	7.00013e+02	2.66400e+03	0.0376684	700.0
2665	7.00020e+02	2.66500e+03	0.0376741	700.0
2666	7.00021e+02	2.66600e+03	0.0376822	700.0
2667	7.00012e+02	2.66700e+03	0.0376932	700.0
2668	7.00022e+02	2.66800e+03	0.0377177	700.0
2669	7.00021e+02	2.66900e+03	0.0377411	700.0
2670	7.00020e+02	2.67000e+03	0.0377645	700.0
2671	7.00026e+02	2.67100e+03	0.0377879	700.0
2672	7.00024e+02	2.67200e+03	0.0378176	700.0
2673	7.00022e+02	2.67300e+03	0.0378375	700.0
2674	7.00026e+02	2.67400e+03	0.0378517	700.0
2675	7.00015e+02	2.67500e+03	0.0378627	700.0
2676	7.00021e+02	2.67600e+03	0.0378539	700.0
2677	7.00018e+02	2.67700e+03	0.0378486	700.0
2678	7.00019e+02	2.67800e+03	0.037841	700.0
2679	7.00009e+02	2.67900e+03	0.0378312	700.0
2680	7.00009e+02	2.68000e+03	0.0378085	700.0
2681	7.00015e+02	2.68100e+03	0.037792	700.0
2682	7.00021e+02	2.68200e+03	0.0377767	700.0
2683	7.00018e+02	2.68300e+03	0.0377616	700.0
2684	7.00009e+02	2.68400e+03	0.0377421	700.0
2685	7.00014e+02	2.68500e+03	0.0377209	700.0
2686	7.00007e+02	2.68600e+03	0.0377002	700.0
2687	7.00016e+02	2.68700e+03	0.0376803	700.0
2688	7.00011e+02	2.68800e+03	0.0376595	700.0
2689	7.00011e+02	2.68900e+03	0.0376444	700.0
2690	7.00009e+02	2.69000e+03	0.0376363	700.0
2691	7.00015e+02	2.69100e+03	0.0376332	700.0
2692	7.00012e+02	2.69200e+03	0.0376441	700.0
2693	7.00009e+02	2.69300e+03	0.0376507	700.0
2694	7.00019e+02	2.69400e+03	0.0376574	700.0
2695	7.00015e+02	2.69500e+03	0.0376648	700.0
2696	7.00014e+02	2.69600e+03	0.0376802	700.0
2697	7.00022e+02	2.69700e+03	0.0376911	700.0
2698	7.00021e+02	2.69800e+03	0.0377013	700.0
2699	7.00022e+02	2.69900e+03	0.0377115	700.0
2700	7.00015e+02	2.70000e+03	0.0377197	700.0
2701	7.00015e+02	2.70100e+03	0.0377251	700.0
2702	7.00015e+02	2.70200e+03	0.0377265	700.0
2703	7.00018e+02	2.70300e+03	0.0377265	700.0
2704	7.00019e+02	2.70400e+03	0.0377215	700.0
2705	7.00007e+02	2.70500e+03	0.0377181	700.0
2706	7.00012e+02	2.70600e+03	0.0377146	700.0
2707	7.00021e+02	2.70700e+03	0.0377109	700.0
2708	7.00022e+02	2.70800e+03	0.0377034	700.0
2709	7.00015e+02	2.70900e+03	0.0376972	700.0
2710	7.00015e+02	2.71000e+03	0.0376921	700.0
2711	7.00016e+02	2.71100e+03	0.0376907	700.0
2712	7.00014e+02	2.71200e+03	0.0376929	700.0
2713	7.00012e+02	2.71300e+03	0.037696	700.0
2714	7.00011e+02	2.71400e+03	0.0376982	700.0
2715	7.00003e+02	2.71500e+03	0.0376996	700.0
2716	7.00006e+02	2.71600e+03	0.0377009	700.0
2717	7.00005e+02	2.71700e+03	0.037703	700.0
2718	7.00007e+02	2.71800e+03	0.0377061	700.0
2719	7.00008e+02	2.71900e+03	0.0377091	700.0
2720	7.00003e+02	2.72000e+03	0.0377101	700.0
