Index	Ts	t	Weight	Tr
[#]	[°C]	[s]	[mg]	[°C]
682	1.30187e+02	6.82000e+02	2.98964	131.0
683	1.30690e+02	6.83000e+02	2.9896	131.5
684	1.31201e+02	6.84000e+02	2.98955	132.0
685	1.31691e+02	6.85000e+02	2.98951	132.5
686	1.32187e+02	6.86000e+02	2.98946	133.0
687	1.32681e+02	6.87000e+02	2.98942	133.5
688	1.33169e+02	6.88000e+02	2.9894	134.0
689	1.33667e+02	6.89000e+02	2.98938	134.5
690	1.34180e+02	6.90000e+02	2.98937	135.0
691	1.34677e+02	6.91000e+02	2.98935	135.5
692	1.35184e+02	6.92000e+02	2.98935	136.0
693	1.35695e+02	6.93000e+02	2.98933	136.5
694	1.36195e+02	6.94000e+02	2.98931	137.0
695	1.36693e+02	6.95000e+02	2.98927	137.5
696	1.37190e+02	6.96000e+02	2.98922	138.0
697	1.37697e+02	6.97000e+02	2.98917	138.5
698	1.38193e+02	6.98000e+02	2.98912	139.0
699	1.38709e+02	6.99000e+02	2.98907	139.5
700	1.39197e+02	7.00000e+02	2.989	140.0
701	1.39692e+02	7.01000e+02	2.98893	140.5
702	1.40199e+02	7.02000e+02	2.98886	141.0
703	1.40699e+02	7.03000e+02	2.98879	141.5
704	1.41200e+02	7.04000e+02	2.98871	142.0
705	1.41706e+02	7.05000e+02	2.98863	142.5
706	1.42205e+02	7.06000e+02	2.98854	143.0
707	1.42705e+02	7.07000e+02	2.98844	143.5
708	1.43207e+02	7.08000e+02	2.98831	144.0
709	1.43711e+02	7.09000e+02	2.98817	144.5
710	1.44208e+02	7.10000e+02	2.98802	145.0
711	1.44715e+02	7.11000e+02	2.98785	145.5
712	1.45217e+02	7.12000e+02	2.98765	146.0
713	1.45711e+02	7.13000e+02	2.98747	146.5
714	1.46221e+02	7.14000e+02	2.9873	147.0
715	1.46719e+02	7.15000e+02	2.98713	147.5
716	1.47216e+02	7.16000e+02	2.98698	148.0
717	1.47724e+02	7.17000e+02	2.98684	148.5
718	1.48223e+02	7.18000e+02	2.9867	149.0
719	1.48725e+02	7.19000e+02	2.98657	149.5
720	1.49230e+02	7.20000e+02	2.98646	150.0
721	1.49727e+02	7.21000e+02	2.98634	150.5
722	1.50222e+02	7.22000e+02	2.98622	151.0
723	1.50757e+02	7.23000e+02	2.98609	151.5
724	1.51249e+02	7.24000e+02	2.98595	152.0
725	1.51749e+02	7.25000e+02	2.9858	152.5
726	1.52252e+02	7.26000e+02	2.98564	153.0
727	1.52747e+02	7.27000e+02	2.98547	153.5
728	1.53248e+02	7.28000e+02	2.98525	154.0
729	1.53752e+02	7.29000e+02	2.98503	154.5
730	1.54257e+02	7.30000e+02	2.98481	155.0
731	1.54760e+02	7.31000e+02	2.98458	155.5
732	1.55253e+02	7.32000e+02	2.98431	156.0
733	1.55753e+02	7.33000e+02	2.98406	156.5
734	1.56252e+02	7.34000e+02	2.98381	157.0
735	1.56758e+02	7.35000e+02	2.98356	157.5
736	1.57278e+02	7.36000e+02	2.98331	158.0
737	1.57776e+02	7.37000e+02	2.98306	158.5
738	1.58280e+02	7.38000e+02	2.98282	159.0
739	1.58767e+02	7.39000e+02	2.98257	159.5
740	1.59283e+02	7.40000e+02	2.98233	160.0
741	1.59780e+02	7.41000e+02	2.98209	160.5
742	1.60275e+02	7.42000e+02	2.98184	161.0
743	1.60784e+02	7.43000e+02	2.98158	161.5
744	1.61297e+02	7.44000e+02	2.98131	162.0
745	1.61803e+02	7.45000e+02	2.98103	162.5
746	1.62295e+02	7.46000e+02	2.98075	163.0
747	1.62805e+02	7.47000e+02	2.98046	163.5
748	1.63308e+02	7.48000e+02	2.98014	164.0
749	1.63814e+02	7.49000e+02	2.97983	164.5
750	1.64302e+02	7.50000e+02	2.97952	165.0
751	1.64812e+02	7.51000e+02	2.9792	165.5
752	1.65319e+02	7.52000e+02	2.97886	166.0
753	1.65820e+02	7.53000e+02	2.97851	166.5
754	1.66321e+02	7.54000e+02	2.97815	167.0
755	1.66823e+02	7.55000e+02	2.97778	167.5
756	1.67338e+02	7.56000e+02	2.97737	168.0
757	1.67850e+02	7.57000e+02	2.97696	168.5
758	1.68343e+02	7.58000e+02	2.97654	169.0
759	1.68853e+02	7.59000e+02	2.97611	169.5
760	1.69358e+02	7.60000e+02	2.97562	170.0
761	1.69862e+02	7.61000e+02	2.97515	170.5
762	1.70364e+02	7.62000e+02	2.97466	171.0
763	1.70868e+02	7.63000e+02	2.97418	171.5
764	1.71382e+02	7.64000e+02	2.97365	172.0
765	1.71874e+02	7.65000e+02	2.97314	172.5
766	1.72386e+02	7.66000e+02	2.97262	173.0
767	1.72888e+02	7.67000e+02	2.9721	173.5
768	1.73386e+02	7.68000e+02	2.97153	174.0
769	1.73893e+02	7.69000e+02	2.97095	174.5
770	1.74402e+02	7.70000e+02	2.97034	175.0
771	1.74901e+02	7.71000e+02	2.96971	175.5
772	1.75397e+02	7.72000e+02	2.96898	176.0
773	1.75908e+02	7.73000e+02	2.96827	176.5
774	1.76414e+02	7.74000e+02	2.96753	177.0
775	1.76923e+02	7.75000e+02	2.96678	177.5
776	1.77411e+02	7.76000e+02	2.96591	178.0
777	1.77919e+02	7.77000e+02	2.96505	178.5
778	1.78429e+02	7.78000e+02	2.96416	179.0
779	1.78929e+02	7.79000e+02	2.96325	179.5
780	1.79438e+02	7.80000e+02	2.9622	180.0
781	1.79936e+02	7.81000e+02	2.96118	180.5
782	1.80446e+02	7.82000e+02	2.96013	181.0
783	1.80949e+02	7.83000e+02	2.95906	181.5
784	1.81454e+02	7.84000e+02	2.95786	182.0
785	1.81954e+02	7.85000e+02	2.95668	182.5
786	1.82465e+02	7.86000e+02	2.95547	183.0
787	1.82974e+02	7.87000e+02	2.95424	183.5
788	1.83484e+02	7.88000e+02	2.9529	184.0
789	1.83990e+02	7.89000e+02	2.95158	184.5
790	1.84488e+02	7.90000e+02	2.95024	185.0
791	1.85005e+02	7.91000e+02	2.94888	185.5
792	1.85506e+02	7.92000e+02	2.94743	186.0
793	1.86007e+02	7.93000e+02	2.94599	186.5
794	1.86518e+02	7.94000e+02	2.94453	187.0
795	1.87026e+02	7.95000e+02	2.94305	187.5
796	1.87538e+02	7.96000e+02	2.94148	188.0
797	1.88033e+02	7.97000e+02	2.93993	188.5
798	1.88551e+02	7.98000e+02	2.93836	189.0
799	1.89054e+02	7.99000e+02	2.93678	189.5
800	1.89552e+02	8.00000e+02	2.93512	190.0
801	1.90067e+02	8.01000e+02	2.93346	190.5
802	1.90573e+02	8.02000e+02	2.93179	191.0
803	1.91073e+02	8.03000e+02	2.93011	191.5
804	1.91590e+02	8.04000e+02	2.92836	192.0
805	1.92102e+02	8.05000e+02	2.92664	192.5
806	1.92601e+02	8.06000e+02	2.92491	193.0
807	1.93102e+02	8.07000e+02	2.92317	193.5
808	1.93608e+02	8.08000e+02	2.92142	194.0
809	1.94120e+02	8.09000e+02	2.91967	194.5
810	1.94623e+02	8.10000e+02	2.91792	195.0
811	1.95123e+02	8.11000e+02	2.91617	195.5
812	1.95636e+02	8.12000e+02	2.91442	196.0
813	1.96137e+02	8.13000e+02	2.91268	196.5
814	1.96635e+02	8.14000e+02	2.91095	197.0
815	1.97157e+02	8.15000e+02	2.90922	197.5
816	1.97657e+02	8.16000e+02	2.90751	198.0
817	1.98150e+02	8.17000e+02	2.90582	198.5
818	1.98673e+02	8.18000e+02	2.90414	199.0
819	1.99191e+02	8.19000e+02	2.90247	199.5
820	1.99694e+02	8.20000e+02	2.90087	200.0
821	2.00202e+02	8.21000e+02	2.89927	200.5
822	2.00702e+02	8.22000e+02	2.89769	201.0
823	2.01210e+02	8.23000e+02	2.89613	201.5
824	2.01723e+02	8.24000e+02	2.89466	202.0
825	2.02221e+02	8.25000e+02	2.89319	202.5
826	2.02748e+02	8.26000e+02	2.89174	203.0
827	2.03256e+02	8.27000e+02	2.89031	203.5
828	2.03762e+02	8.28000e+02	2.88899	204.0
829	2.04257e+02	8.29000e+02	2.88766	204.5
830	2.04781e+02	8.30000e+02	2.88635	205.0
831	2.05280e+02	8.31000e+02	2.88506	205.5
832	2.05807e+02	8.32000e+02	2.8839	206.0
833	2.06306e+02	8.33000e+02	2.88274	206.5
834	2.06833e+02	8.34000e+02	2.88161	207.0
835	2.07335e+02	8.35000e+02	2.88051	207.5
836	2.07841e+02	8.36000e+02	2.87956	208.0
837	2.08357e+02	8.37000e+02	2.87858	208.5
838	2.08862e+02	8.38000e+02	2.87764	209.0
839	2.09385e+02	8.39000e+02	2.87672	209.5
840	2.09897e+02	8.40000e+02	2.87595	210.0
841	2.10407e+02	8.41000e+02	2.87515	210.5
842	2.10915e+02	8.42000e+02	2.87438	211.0
843	2.11427e+02	8.43000e+02	2.87363	211.5
844	2.11931e+02	8.44000e+02	2.87301	212.0
845	2.12454e+02	8.45000e+02	2.87235	212.5
846	2.12956e+02	8.46000e+02	2.87171	213.0
847	2.13465e+02	8.47000e+02	2.87108	213.5
848	2.13958e+02	8.48000e+02	2.87054	214.0
849	2.14479e+02	8.49000e+02	2.86999	214.5
850	2.14999e+02	8.50000e+02	2.86946	215.0
851	2.15492e+02	8.51000e+02	2.86894	215.5
852	2.16004e+02	8.52000e+02	2.8685	216.0
853	2.16534e+02	8.53000e+02	2.86803	216.5
854	2.17033e+02	8.54000e+02	2.86758	217.0
855	2.17538e+02	8.55000e+02	2.86713	217.5
856	2.18050e+02	8.56000e+02	2.86674	218.0
857	2.18552e+02	8.57000e+02	2.86633	218.5
858	2.19053e+02	8.58000e+02	2.86593	219.0
859	2.19572e+02	8.59000e+02	2.86554	219.5
860	2.20076e+02	8.60000e+02	2.86519	220.0
861	2.20578e+02	8.61000e+02	2.86481	220.5
862	2.21082e+02	8.62000e+02	2.86444	221.0
863	2.21603e+02	8.63000e+02	2.86407	221.5
864	2.22099e+02	8.64000e+02	2.86371	222.0
865	2.22594e+02	8.65000e+02	2.86334	222.5
866	2.23093e+02	8.66000e+02	2.86298	223.0
867	2.23604e+02	8.67000e+02	2.86261	223.5
868	2.24106e+02	8.68000e+02	2.86224	224.0
869	2.24592e+02	8.69000e+02	2.86187	224.5
870	2.25079e+02	8.70000e+02	2.8615	225.0
871	2.25579e+02	8.71000e+02	2.86112	225.5
872	2.26078e+02	8.72000e+02	2.86075	226.0
873	2.26591e+02	8.73000e+02	2.86039	226.5
874	2.27092e+02	8.74000e+02	2.86003	227.0
875	2.27591e+02	8.75000e+02	2.85967	227.5
876	2.28102e+02	8.76000e+02	2.85933	228.0
877	2.28600e+02	8.77000e+02	2.85899	228.5
878	2.29091e+02	8.78000e+02	2.85865	229.0
879	2.29602e+02	8.79000e+02	2.8583	229.5
880	2.30102e+02	8.80000e+02	2.85796	230.0
881	2.30606e+02	8.81000e+02	2.85763	230.5
882	2.31115e+02	8.82000e+02	2.85729	231.0
883	2.31620e+02	8.83000e+02	2.85696	231.5
884	2.32126e+02	8.84000e+02	2.85663	232.0
885	2.32632e+02	8.85000e+02	2.85629	232.5
886	2.33147e+02	8.86000e+02	2.85594	233.0
887	2.33653e+02	8.87000e+02	2.85559	233.5
888	2.34156e+02	8.88000e+02	2.85522	234.0
889	2.34662e+02	8.89000e+02	2.85486	234.5
890	2.35175e+02	8.90000e+02	2.85451	235.0
891	2.35683e+02	8.91000e+02	2.85415	235.5
892	2.36189e+02	8.92000e+02	2.85379	236.0
893	2.36685e+02	8.93000e+02	2.85344	236.5
894	2.37189e+02	8.94000e+02	2.85308	237.0
895	2.37700e+02	8.95000e+02	2.85272	237.5
896	2.38204e+02	8.96000e+02	2.85238	238.0
897	2.38722e+02	8.97000e+02	2.85204	238.5
898	2.39228e+02	8.98000e+02	2.8517	239.0
899	2.39722e+02	8.99000e+02	2.85136	239.5
900	2.40240e+02	9.00000e+02	2.85105	240.0
901	2.40732e+02	9.01000e+02	2.85073	240.5
902	2.41240e+02	9.02000e+02	2.85042	241.0
903	2.41752e+02	9.03000e+02	2.85011	241.5
904	2.42245e+02	9.04000e+02	2.84982	242.0
905	2.42744e+02	9.05000e+02	2.84952	242.5
906	2.43245e+02	9.06000e+02	2.84923	243.0
907	2.43752e+02	9.07000e+02	2.84894	243.5
908	2.44258e+02	9.08000e+02	2.84867	244.0
909	2.44763e+02	9.09000e+02	2.84839	244.5
910	2.45263e+02	9.10000e+02	2.84811	245.0
911	2.45773e+02	9.11000e+02	2.84784	245.5
912	2.46276e+02	9.12000e+02	2.84756	246.0
913	2.46787e+02	9.13000e+02	2.84729	246.5
914	2.47286e+02	9.14000e+02	2.84701	247.0
915	2.47789e+02	9.15000e+02	2.84673	247.5
916	2.48298e+02	9.16000e+02	2.84646	248.0
917	2.48806e+02	9.17000e+02	2.8462	248.5
918	2.49309e+02	9.18000e+02	2.84595	249.0
919	2.49806e+02	9.19000e+02	2.8457	249.5
920	2.50321e+02	9.20000e+02	2.84548	250.0
921	2.50818e+02	9.21000e+02	2.84526	250.5
922	2.51308e+02	9.22000e+02	2.84503	251.0
923	2.51810e+02	9.23000e+02	2.84481	251.5
924	2.52339e+02	9.24000e+02	2.84461	252.0
925	2.52823e+02	9.25000e+02	2.8444	252.5
926	2.53343e+02	9.26000e+02	2.84419	253.0
927	2.53841e+02	9.27000e+02	2.84398	253.5
928	2.54341e+02	9.28000e+02	2.84376	254.0
929	2.54833e+02	9.29000e+02	2.84354	254.5
930	2.55348e+02	9.30000e+02	2.84332	255.0
931	2.55838e+02	9.31000e+02	2.84309	255.5
932	2.56339e+02	9.32000e+02	2.84287	256.0
933	2.56844e+02	9.33000e+02	2.84265	256.5
934	2.57346e+02	9.34000e+02	2.84243	257.0
935	2.57862e+02	9.35000e+02	2.84222	257.5
936	2.58365e+02	9.36000e+02	2.842	258.0
937	2.58868e+02	9.37000e+02	2.84177	258.5
938	2.59372e+02	9.38000e+02	2.84153	259.0
939	2.59877e+02	9.39000e+02	2.84129	259.5
940	2.60381e+02	9.40000e+02	2.84102	260.0
941	2.60899e+02	9.41000e+02	2.84076	260.5
942	2.61405e+02	9.42000e+02	2.8405	261.0
943	2.61904e+02	9.43000e+02	2.84023	261.5
944	2.62411e+02	9.44000e+02	2.83994	262.0
945	2.62889e+02	9.45000e+02	2.83965	262.5
946	2.63398e+02	9.46000e+02	2.83936	263.0
947	2.63915e+02	9.47000e+02	2.83907	263.5
948	2.64424e+02	9.48000e+02	2.83879	264.0
949	2.64949e+02	9.49000e+02	2.83852	264.5
950	2.65442e+02	9.50000e+02	2.83826	265.0
951	2.65954e+02	9.51000e+02	2.838	265.5
952	2.66489e+02	9.52000e+02	2.83777	266.0
953	2.66977e+02	9.53000e+02	2.83753	266.5
954	2.67480e+02	9.54000e+02	2.83729	267.0
955	2.67995e+02	9.55000e+02	2.83705	267.5
956	2.68503e+02	9.56000e+02	2.83681	268.0
957	2.69033e+02	9.57000e+02	2.83658	268.5
958	2.69542e+02	9.58000e+02	2.83634	269.0
959	2.70065e+02	9.59000e+02	2.83609	269.5
960	2.70598e+02	9.60000e+02	2.83585	270.0
961	2.71103e+02	9.61000e+02	2.83559	270.5
962	2.71611e+02	9.62000e+02	2.83532	271.0
963	2.72122e+02	9.63000e+02	2.83505	271.5
964	2.72646e+02	9.64000e+02	2.83475	272.0
965	2.73142e+02	9.65000e+02	2.83446	272.5
966	2.73638e+02	9.66000e+02	2.83416	273.0
967	2.74143e+02	9.67000e+02	2.83387	273.5
968	2.74646e+02	9.68000e+02	2.83355	274.0
969	2.75132e+02	9.69000e+02	2.83323	274.5
970	2.75649e+02	9.70000e+02	2.83291	275.0
971	2.76147e+02	9.71000e+02	2.83259	275.5
972	2.76655e+02	9.72000e+02	2.83224	276.0
973	2.77143e+02	9.73000e+02	2.83189	276.5
974	2.77658e+02	9.74000e+02	2.83154	277.0
975	2.78151e+02	9.75000e+02	2.83118	277.5
976	2.78658e+02	9.76000e+02	2.83079	278.0
977	2.79157e+02	9.77000e+02	2.8304	278.5
978	2.79654e+02	9.78000e+02	2.83	279.0
979	2.80165e+02	9.79000e+02	2.82959	279.5
980	2.80675e+02	9.80000e+02	2.82914	280.0
981	2.81191e+02	9.81000e+02	2.8287	280.5
982	2.81694e+02	9.82000e+02	2.82824	281.0
983	2.82207e+02	9.83000e+02	2.82778	281.5
984	2.82707e+02	9.84000e+02	2.82727	282.0
985	2.83234e+02	9.85000e+02	2.82676	282.5
986	2.83741e+02	9.86000e+02	2.82623	283.0
987	2.84257e+02	9.87000e+02	2.82568	283.5
988	2.84768e+02	9.88000e+02	2.82506	284.0
989	2.85282e+02	9.89000e+02	2.82443	284.5
990	2.85792e+02	9.90000e+02	2.82379	285.0
991	2.86317e+02	9.91000e+02	2.82313	285.5
992	2.86850e+02	9.92000e+02	2.82239	286.0
993	2.87390e+02	9.93000e+02	2.82166	286.5
994	2.87931e+02	9.94000e+02	2.82093	287.0
995	2.88467e+02	9.95000e+02	2.82019	287.5
996	2.88983e+02	9.96000e+02	2.8194	288.0
997	2.89482e+02	9.97000e+02	2.81863	288.5
998	2.89994e+02	9.98000e+02	2.81784	289.0
999	2.90507e+02	9.99000e+02	2.81705	289.5
1000	2.91004e+02	1.00000e+03	2.8162	290.0
1001	2.91513e+02	1.00100e+03	2.81535	290.5
1002	2.92006e+02	1.00200e+03	2.81447	291.0
1003	2.92505e+02	1.00300e+03	2.81357	291.5
1004	2.93029e+02	1.00400e+03	2.81256	292.0
1005	2.93525e+02	1.00500e+03	2.81155	292.5
1006	2.94036e+02	1.00600e+03	2.81053	293.0
1007	2.94539e+02	1.00700e+03	2.80948	293.5
1008	2.95065e+02	1.00800e+03	2.80832	294.0
1009	2.95586e+02	1.00900e+03	2.8072	294.5
1010	2.96067e+02	1.01000e+03	2.80607	295.0
1011	2.96561e+02	1.01100e+03	2.80492	295.5
1012	2.97061e+02	1.01200e+03	2.8037	296.0
1013	2.97580e+02	1.01300e+03	2.80248	296.5
1014	2.98096e+02	1.01400e+03	2.80123	297.0
1015	2.98598e+02	1.01500e+03	2.79995	297.5
1016	2.99095e+02	1.01600e+03	2.79857	298.0
1017	2.99584e+02	1.01700e+03	2.79719	298.5
1018	3.00085e+02	1.01800e+03	2.79579	299.0
1019	3.00589e+02	1.01900e+03	2.79436	299.5
1020	3.01098e+02	1.02000e+03	2.79281	300.0
1021	3.01599e+02	1.02100e+03	2.79128	300.5
1022	3.02096e+02	1.02200e+03	2.78972	301.0
1023	3.02597e+02	1.02300e+03	2.78814	301.5
1024	3.03104e+02	1.02400e+03	2.78645	302.0
1025	3.03590e+02	1.02500e+03	2.78478	302.5
1026	3.04103e+02	1.02600e+03	2.78309	303.0
1027	3.04615e+02	1.02700e+03	2.78137	303.5
1028	3.05094e+02	1.02800e+03	2.77955	304.0
1029	3.05597e+02	1.02900e+03	2.77775	304.5
1030	3.06094e+02	1.03000e+03	2.77592	305.0
1031	3.06599e+02	1.03100e+03	2.77408	305.5
1032	3.07106e+02	1.03200e+03	2.77215	306.0
1033	3.07600e+02	1.03300e+03	2.77025	306.5
1034	3.08100e+02	1.03400e+03	2.76835	307.0
1035	3.08610e+02	1.03500e+03	2.76643	307.5
1036	3.09104e+02	1.03600e+03	2.76446	308.0
1037	3.09610e+02	1.03700e+03	2.76248	308.5
1038	3.10115e+02	1.03800e+03	2.76049	309.0
1039	3.10624e+02	1.03900e+03	2.75848	309.5
1040	3.11150e+02	1.04000e+03	2.7564	310.0
1041	3.11657e+02	1.04100e+03	2.75434	310.5
1042	3.12176e+02	1.04200e+03	2.75226	311.0
1043	3.12686e+02	1.04300e+03	2.75018	311.5
1044	3.13200e+02	1.04400e+03	2.74804	312.0
1045	3.13705e+02	1.04500e+03	2.74591	312.5
1046	3.14227e+02	1.04600e+03	2.74376	313.0
1047	3.14730e+02	1.04700e+03	2.74161	313.5
1048	3.15234e+02	1.04800e+03	2.73941	314.0
1049	3.15750e+02	1.04900e+03	2.73722	314.5
1050	3.16245e+02	1.05000e+03	2.73504	315.0
1051	3.16757e+02	1.05100e+03	2.73285	315.5
1052	3.17241e+02	1.05200e+03	2.73065	316.0
1053	3.17748e+02	1.05300e+03	2.72845	316.5
1054	3.18261e+02	1.05400e+03	2.72626	317.0
1055	3.18756e+02	1.05500e+03	2.72405	317.5
1056	3.19265e+02	1.05600e+03	2.72185	318.0
1057	3.19754e+02	1.05700e+03	2.71965	318.5
1058	3.20260e+02	1.05800e+03	2.71746	319.0
1059	3.20759e+02	1.05900e+03	2.71526	319.5
1060	3.21266e+02	1.06000e+03	2.71307	320.0
1061	3.21766e+02	1.06100e+03	2.71087	320.5
1062	3.22271e+02	1.06200e+03	2.70866	321.0
1063	3.22786e+02	1.06300e+03	2.70645	321.5
1064	3.23287e+02	1.06400e+03	2.70421	322.0
1065	3.23793e+02	1.06500e+03	2.70195	322.5
1066	3.24302e+02	1.06600e+03	2.69968	323.0
1067	3.24813e+02	1.06700e+03	2.69738	323.5
1068	3.25349e+02	1.06800e+03	2.695	324.0
1069	3.25877e+02	1.06900e+03	2.69262	324.5
1070	3.26398e+02	1.07000e+03	2.69021	325.0
1071	3.26920e+02	1.07100e+03	2.68777	325.5
1072	3.27448e+02	1.07200e+03	2.68521	326.0
1073	3.27961e+02	1.07300e+03	2.68265	326.5
1074	3.28472e+02	1.07400e+03	2.68006	327.0
1075	3.28979e+02	1.07500e+03	2.67744	327.5
1076	3.29497e+02	1.07600e+03	2.67466	328.0
1077	3.30036e+02	1.07700e+03	2.67188	328.5
1078	3.30544e+02	1.07800e+03	2.66906	329.0
1079	3.31047e+02	1.07900e+03	2.66619	329.5
1080	3.31538e+02	1.08000e+03	2.66311	330.0
1081	3.32041e+02	1.08100e+03	2.66004	330.5
1082	3.32542e+02	1.08200e+03	2.65691	331.0
1083	3.33050e+02	1.08300e+03	2.65372	331.5
1084	3.33550e+02	1.08400e+03	2.65025	332.0
1085	3.34051e+02	1.08500e+03	2.64682	332.5
1086	3.34575e+02	1.08600e+03	2.64331	333.0
1087	3.35104e+02	1.08700e+03	2.63973	333.5
1088	3.35632e+02	1.08800e+03	2.63582	334.0
1089	3.36146e+02	1.08900e+03	2.63192	334.5
1090	3.36650e+02	1.09000e+03	2.62794	335.0
1091	3.37164e+02	1.09100e+03	2.62387	335.5
1092	3.37651e+02	1.09200e+03	2.61939	336.0
1093	3.38148e+02	1.09300e+03	2.61496	336.5
1094	3.38642e+02	1.09400e+03	2.61043	337.0
1095	3.39153e+02	1.09500e+03	2.60582	337.5
1096	3.39659e+02	1.09600e+03	2.60077	338.0
1097	3.40156e+02	1.09700e+03	2.59575	338.5
1098	3.40646e+02	1.09800e+03	2.59063	339.0
1099	3.41145e+02	1.09900e+03	2.58541	339.5
1100	3.41631e+02	1.10000e+03	2.5797	340.0
1101	3.42150e+02	1.10100e+03	2.57405	340.5
1102	3.42666e+02	1.10200e+03	2.56829	341.0
1103	3.43179e+02	1.10300e+03	2.56242	341.5
1104	3.43678e+02	1.10400e+03	2.55602	342.0
1105	3.44185e+02	1.10500e+03	2.54966	342.5
1106	3.44689e+02	1.10600e+03	2.54315	343.0
1107	3.45214e+02	1.10700e+03	2.53652	343.5
1108	3.45711e+02	1.10800e+03	2.52927	344.0
1109	3.46224e+02	1.10900e+03	2.52208	344.5
1110	3.46735e+02	1.11000e+03	2.51474	345.0
1111	3.47228e+02	1.11100e+03	2.50727	345.5
1112	3.47717e+02	1.11200e+03	2.49911	346.0
1113	3.48214e+02	1.11300e+03	2.49104	346.5
1114	3.48714e+02	1.11400e+03	2.4828	347.0
1115	3.49233e+02	1.11500e+03	2.47442	347.5
1116	3.49729e+02	1.11600e+03	2.46531	348.0
1117	3.50218e+02	1.11700e+03	2.4563	348.5
1118	3.50756e+02	1.11800e+03	2.44713	349.0
1119	3.51251e+02	1.11900e+03	2.43782	349.5
1120	3.51749e+02	1.12000e+03	2.42775	350.0
1121	3.52247e+02	1.12100e+03	2.41776	350.5
1122	3.52747e+02	1.12200e+03	2.40759	351.0
1123	3.53222e+02	1.12300e+03	2.39726	351.5
1124	3.53704e+02	1.12400e+03	2.38611	352.0
1125	3.54187e+02	1.12500e+03	2.37505	352.5
1126	3.54692e+02	1.12600e+03	2.36381	353.0
1127	3.55192e+02	1.12700e+03	2.3524	353.5
1128	3.55653e+02	1.12800e+03	2.34014	354.0
1129	3.56143e+02	1.12900e+03	2.328	354.5
1130	3.56641e+02	1.13000e+03	2.31569	355.0
1131	3.57132e+02	1.13100e+03	2.30321	355.5
1132	3.57639e+02	1.13200e+03	2.28988	356.0
1133	3.58170e+02	1.13300e+03	2.27667	356.5
1134	3.58672e+02	1.13400e+03	2.26327	357.0
1135	3.59158e+02	1.13500e+03	2.24972	357.5
1136	3.59637e+02	1.13600e+03	2.2353	358.0
1137	3.60150e+02	1.13700e+03	2.22101	358.5
1138	3.60654e+02	1.13800e+03	2.20654	359.0
1139	3.61146e+02	1.13900e+03	2.19192	359.5
1140	3.61631e+02	1.14000e+03	2.17648	360.0
1141	3.62130e+02	1.14100e+03	2.16116	360.5
1142	3.62634e+02	1.14200e+03	2.14569	361.0
1143	3.63110e+02	1.14300e+03	2.13008	361.5
1144	3.63635e+02	1.14400e+03	2.11373	362.0
1145	3.64119e+02	1.14500e+03	2.09749	362.5
1146	3.64647e+02	1.14600e+03	2.0811	363.0
1147	3.65141e+02	1.14700e+03	2.06457	363.5
1148	3.65648e+02	1.14800e+03	2.04734	364.0
1149	3.66142e+02	1.14900e+03	2.03018	364.5
1150	3.66622e+02	1.15000e+03	2.01287	365.0
1151	3.67101e+02	1.15100e+03	1.99541	365.5
1152	3.67577e+02	1.15200e+03	1.97723	366.0
1153	3.68065e+02	1.15300e+03	1.95916	366.5
1154	3.68562e+02	1.15400e+03	1.94094	367.0
1155	3.69045e+02	1.15500e+03	1.92259	367.5
1156	3.69543e+02	1.15600e+03	1.90355	368.0
1157	3.70015e+02	1.15700e+03	1.88462	368.5
1158	3.70492e+02	1.15800e+03	1.86555	369.0
1159	3.70955e+02	1.15900e+03	1.84635	369.5
1160	3.71443e+02	1.16000e+03	1.8265	370.0
1161	3.71932e+02	1.16100e+03	1.80675	370.5
1162	3.72410e+02	1.16200e+03	1.78686	371.0
1163	3.72898e+02	1.16300e+03	1.76685	371.5
1164	3.73382e+02	1.16400e+03	1.74621	372.0
1165	3.73875e+02	1.16500e+03	1.72567	372.5
1166	3.74361e+02	1.16600e+03	1.70501	373.0
1167	3.74846e+02	1.16700e+03	1.68422	373.5
1168	3.75341e+02	1.16800e+03	1.66284	374.0
1169	3.75822e+02	1.16900e+03	1.64156	374.5
1170	3.76309e+02	1.17000e+03	1.62019	375.0
1171	3.76787e+02	1.17100e+03	1.59874	375.5
1172	3.77275e+02	1.17200e+03	1.57678	376.0
1173	3.77777e+02	1.17300e+03	1.55494	376.5
1174	3.78275e+02	1.17400e+03	1.53302	377.0
1175	3.78781e+02	1.17500e+03	1.51104	377.5
1176	3.79267e+02	1.17600e+03	1.48868	378.0
1177	3.79757e+02	1.17700e+03	1.46639	378.5
1178	3.80244e+02	1.17800e+03	1.44408	379.0
1179	3.80737e+02	1.17900e+03	1.42172	379.5
1180	3.81228e+02	1.18000e+03	1.39914	380.0
1181	3.81727e+02	1.18100e+03	1.37666	380.5
1182	3.82196e+02	1.18200e+03	1.35417	381.0
1183	3.82676e+02	1.18300e+03	1.33166	381.5
1184	3.83163e+02	1.18400e+03	1.30906	382.0
1185	3.83638e+02	1.18500e+03	1.28644	382.5
1186	3.84132e+02	1.18600e+03	1.26378	383.0
1187	3.84618e+02	1.18700e+03	1.24111	383.5
1188	3.85107e+02	1.18800e+03	1.21831	384.0
1189	3.85571e+02	1.18900e+03	1.19558	384.5
1190	3.86051e+02	1.19000e+03	1.17287	385.0
1191	3.86548e+02	1.19100e+03	1.15018	385.5
1192	3.87052e+02	1.19200e+03	1.12755	386.0
1193	3.87535e+02	1.19300e+03	1.10498	386.5
1194	3.88011e+02	1.19400e+03	1.08247	387.0
1195	3.88495e+02	1.19500e+03	1.06001	387.5
1196	3.88975e+02	1.19600e+03	1.03779	388.0
1197	3.89477e+02	1.19700e+03	1.01555	388.5
1198	3.89973e+02	1.19800e+03	0.993369	389.0
1199	3.90470e+02	1.19900e+03	0.971231	389.5
1200	3.90953e+02	1.20000e+03	0.949332	390.0
1201	3.91447e+02	1.20100e+03	0.927369	390.5
1202	3.91935e+02	1.20200e+03	0.905438	391.0
1203	3.92418e+02	1.20300e+03	0.883543	391.5
1204	3.92922e+02	1.20400e+03	0.861822	392.0
1205	3.93443e+02	1.20500e+03	0.840095	392.5
1206	3.93947e+02	1.20600e+03	0.818433	393.0
1207	3.94429e+02	1.20700e+03	0.796834	393.5
1208	3.94913e+02	1.20800e+03	0.775522	394.0
1209	3.95393e+02	1.20900e+03	0.754238	394.5
1210	3.95877e+02	1.21000e+03	0.733084	395.0
1211	3.96372e+02	1.21100e+03	0.712044	395.5
1212	3.96860e+02	1.21200e+03	0.691572	396.0
1213	3.97354e+02	1.21300e+03	0.671108	396.5
1214	3.97846e+02	1.21400e+03	0.650847	397.0
1215	3.98341e+02	1.21500e+03	0.630755	397.5
1216	3.98836e+02	1.21600e+03	0.611536	398.0
1217	3.99345e+02	1.21700e+03	0.592261	398.5
1218	3.99856e+02	1.21800e+03	0.573217	399.0
1219	4.00362e+02	1.21900e+03	0.554374	399.5
1220	4.00869e+02	1.22000e+03	0.536568	400.0
1221	4.01380e+02	1.22100e+03	0.51864	400.5
1222	4.01908e+02	1.22200e+03	0.500954	401.0
1223	4.02405e+02	1.22300e+03	0.483491	401.5
1224	4.02917e+02	1.22400e+03	0.467145	402.0
1225	4.03415e+02	1.22500e+03	0.450695	402.5
1226	4.03938e+02	1.22600e+03	0.43452	403.0
1227	4.04438e+02	1.22700e+03	0.418591	403.5
1228	4.04948e+02	1.22800e+03	0.403903	404.0
1229	4.05463e+02	1.22900e+03	0.389057	404.5
1230	4.05974e+02	1.23000e+03	0.374481	405.0
1231	4.06466e+02	1.23100e+03	0.36015	405.5
1232	4.06971e+02	1.23200e+03	0.347089	406.0
1233	4.07481e+02	1.23300e+03	0.333856	406.5
1234	4.08010e+02	1.23400e+03	0.320887	407.0
1235	4.08522e+02	1.23500e+03	0.308161	407.5
1236	4.09030e+02	1.23600e+03	0.296671	408.0
1237	4.09557e+02	1.23700e+03	0.284991	408.5
1238	4.10061e+02	1.23800e+03	0.273546	409.0
1239	4.10578e+02	1.23900e+03	0.262325	409.5
1240	4.11091e+02	1.24000e+03	0.25225	410.0
1241	4.11611e+02	1.24100e+03	0.242001	410.5
1242	4.12100e+02	1.24200e+03	0.231971	411.0
1243	4.12626e+02	1.24300e+03	0.222151	411.5
1244	4.13153e+02	1.24400e+03	0.2134	412.0
1245	4.13689e+02	1.24500e+03	0.204489	412.5
1246	4.14196e+02	1.24600e+03	0.195779	413.0
1247	4.14709e+02	1.24700e+03	0.187261	413.5
1248	4.15210e+02	1.24800e+03	0.17974	414.0
1249	4.15719e+02	1.24900e+03	0.172061	414.5
1250	4.16235e+02	1.25000e+03	0.16457	415.0
1251	4.16719e+02	1.25100e+03	0.157255	415.5
1252	4.17232e+02	1.25200e+03	0.15085	416.0
1253	4.17717e+02	1.25300e+03	0.144301	416.5
1254	4.18215e+02	1.25400e+03	0.137918	417.0
1255	4.18710e+02	1.25500e+03	0.131691	417.5
1256	4.19203e+02	1.25600e+03	0.126284	418.0
1257	4.19694e+02	1.25700e+03	0.120741	418.5
1258	4.20200e+02	1.25800e+03	0.11535	419.0
1259	4.20712e+02	1.25900e+03	0.110105	419.5
1260	4.21202e+02	1.26000e+03	0.105597	420.0
1261	4.21692e+02	1.26100e+03	0.100985	420.5
1262	4.22193e+02	1.26200e+03	0.0965158	421.0
1263	4.22679e+02	1.26300e+03	0.0921785	421.5
1264	4.23183e+02	1.26400e+03	0.0885294	422.0
1265	4.23689e+02	1.26500e+03	0.0847635	422.5
1266	4.24196e+02	1.26600e+03	0.0811197	423.0
1267	4.24706e+02	1.26700e+03	0.0775929	423.5
1268	4.25218e+02	1.26800e+03	0.0746677	424.0
1269	4.25713e+02	1.26900e+03	0.071645	424.5
1270	4.26214e+02	1.27000e+03	0.0687268	425.0
1271	4.26738e+02	1.27100e+03	0.0659071	425.5
1272	4.27246e+02	1.27200e+03	0.0636036	426.0
1273	4.27740e+02	1.27300e+03	0.0612004	426.5
1274	4.28230e+02	1.27400e+03	0.0588799	427.0
1275	4.28719e+02	1.27500e+03	0.0566427	427.5
1276	4.29219e+02	1.27600e+03	0.0548291	428.0
1277	4.29716e+02	1.27700e+03	0.0529484	428.5
1278	4.30212e+02	1.27800e+03	0.051141	429.0
1279	4.30719e+02	1.27900e+03	0.0494011	429.5
1280	4.31211e+02	1.28000e+03	0.0480141	430.0
1281	4.31718e+02	1.28100e+03	0.0465466	430.5
1282	4.32227e+02	1.28200e+03	0.045123	431.0
1283	4.32707e+02	1.28300e+03	0.0437467	431.5
1284	4.33210e+02	1.28400e+03	0.0426172	432.0
1285	4.33706e+02	1.28500e+03	0.0414428	432.5
1286	4.34211e+02	1.28600e+03	0.0403123	433.0
1287	4.34709e+02	1.28700e+03	0.0392246	433.5
1288	4.35216e+02	1.28800e+03	0.0383413	434.0
1289	4.35712e+02	1.28900e+03	0.0374238	434.5
1290	4.36188e+02	1.29000e+03	0.0365415	435.0
1291	4.36681e+02	1.29100e+03	0.0356934	435.5
1292	4.37169e+02	1.29200e+03	0.0350289	436.0
1293	4.37659e+02	1.29300e+03	0.0343323	436.5
1294	4.38144e+02	1.29400e+03	0.0336654	437.0
1295	4.38641e+02	1.29500e+03	0.0330271	437.5
1296	4.39128e+02	1.29600e+03	0.0325371	438.0
1297	4.39624e+02	1.29700e+03	0.0320144	438.5
1298	4.40098e+02	1.29800e+03	0.0315097	439.0
1299	4.40603e+02	1.29900e+03	0.031025	439.5
1300	4.41094e+02	1.30000e+03	0.0306497	440.0
1301	4.41594e+02	1.30100e+03	0.030254	440.5
1302	4.42083e+02	1.30200e+03	0.0298773	441.0
1303	4.42587e+02	1.30300e+03	0.0295193	441.5
1304	4.43070e+02	1.30400e+03	0.0292444	442.0
1305	4.43582e+02	1.30500e+03	0.0289503	442.5
1306	4.44061e+02	1.30600e+03	0.0286668	443.0
1307	4.44573e+02	1.30700e+03	0.0283948	443.5
1308	4.45059e+02	1.30800e+03	0.0281792	444.0
1309	4.45559e+02	1.30900e+03	0.0279493	444.5
1310	4.46043e+02	1.31000e+03	0.0277277	445.0
1311	4.46543e+02	1.31100e+03	0.0275147	445.5
1312	4.47036e+02	1.31200e+03	0.0273398	446.0
1313	4.47546e+02	1.31300e+03	0.027158	446.5
1314	4.48041e+02	1.31400e+03	0.0269802	447.0
1315	4.48522e+02	1.31500e+03	0.0268065	447.5
1316	4.49000e+02	1.31600e+03	0.0266578	448.0
1317	4.49490e+02	1.31700e+03	0.0264983	448.5
1318	4.49991e+02	1.31800e+03	0.0263406	449.0
1319	4.50476e+02	1.31900e+03	0.0261874	449.5
1320	4.50973e+02	1.32000e+03	0.0260506	450.0
1321	4.51480e+02	1.32100e+03	0.0259191	450.5
1322	4.51979e+02	1.32200e+03	0.0257959	451.0
1323	4.52476e+02	1.32300e+03	0.0256786	451.5
1324	4.52964e+02	1.32400e+03	0.0255982	452.0
1325	4.53446e+02	1.32500e+03	0.0255149	452.5
1326	4.53939e+02	1.32600e+03	0.025442	453.0
1327	4.54431e+02	1.32700e+03	0.0253775	453.5
1328	4.54910e+02	1.32800e+03	0.0253477	454.0
1329	4.55401e+02	1.32900e+03	0.0253072	454.5
1330	4.55891e+02	1.33000e+03	0.0252663	455.0
1331	4.56361e+02	1.33100e+03	0.0252258	455.5
1332	4.56838e+02	1.33200e+03	0.0251979	456.0
1333	4.57299e+02	1.33300e+03	0.0251635	456.5
1334	4.57768e+02	1.33400e+03	0.0251316	457.0
1335	4.58220e+02	1.33500e+03	0.0251026	457.5
1336	4.58689e+02	1.33600e+03	0.0250739	458.0
1337	4.59169e+02	1.33700e+03	0.0250472	458.5
1338	4.59644e+02	1.33800e+03	0.0250179	459.0
1339	4.60133e+02	1.33900e+03	0.024986	459.5
1340	4.60623e+02	1.34000e+03	0.0249538	460.0
1341	4.61101e+02	1.34100e+03	0.0249148	460.5
1342	4.61576e+02	1.34200e+03	0.0248742	461.0
1343	4.62075e+02	1.34300e+03	0.0248343	461.5
1344	4.62561e+02	1.34400e+03	0.024788	462.0
1345	4.63053e+02	1.34500e+03	0.0247527	462.5
1346	4.63537e+02	1.34600e+03	0.0247217	463.0
1347	4.64030e+02	1.34700e+03	0.0246923	463.5
1348	4.64524e+02	1.34800e+03	0.0246793	464.0
1349	4.65002e+02	1.34900e+03	0.0246611	464.5
1350	4.65492e+02	1.35000e+03	0.0246478	465.0
1351	4.65967e+02	1.35100e+03	0.0246397	465.5
1352	4.66457e+02	1.35200e+03	0.0246501	466.0
1353	4.66939e+02	1.35300e+03	0.0246649	466.5
1354	4.67443e+02	1.35400e+03	0.0246841	467.0
1355	4.67919e+02	1.35500e+03	0.024705	467.5
1356	4.68406e+02	1.35600e+03	0.0247459	468.0
1357	4.68892e+02	1.35700e+03	0.0247706	468.5
1358	4.69390e+02	1.35800e+03	0.0247906	469.0
1359	4.69875e+02	1.35900e+03	0.0248096	469.5
1360	4.70362e+02	1.36000e+03	0.0248147	470.0
1361	4.70844e+02	1.36100e+03	0.0248234	470.5
1362	4.71341e+02	1.36200e+03	0.0248296	471.0
1363	4.71826e+02	1.36300e+03	0.0248329	471.5
1364	4.72309e+02	1.36400e+03	0.0248209	472.0
1365	4.72809e+02	1.36500e+03	0.0248073	472.5
1366	4.73299e+02	1.36600e+03	0.0247908	473.0
1367	4.73788e+02	1.36700e+03	0.0247731	473.5
1368	4.74269e+02	1.36800e+03	0.024741	474.0
1369	4.74759e+02	1.36900e+03	0.0247183	474.5
1370	4.75247e+02	1.37000e+03	0.0246979	475.0
1371	4.75743e+02	1.37100e+03	0.0246775	475.5
1372	4.76221e+02	1.37200e+03	0.0246602	476.0
1373	4.76724e+02	1.37300e+03	0.0246394	476.5
1374	4.77217e+02	1.37400e+03	0.0246177	477.0
1375	4.77703e+02	1.37500e+03	0.0245964	477.5
1376	4.78192e+02	1.37600e+03	0.0245774	478.0
1377	4.78685e+02	1.37700e+03	0.024563	478.5
1378	4.79166e+02	1.37800e+03	0.0245517	479.0
1379	4.79656e+02	1.37900e+03	0.0245415	479.5
1380	4.80164e+02	1.38000e+03	0.0245381	480.0
1381	4.80654e+02	1.38100e+03	0.0245274	480.5
1382	4.81145e+02	1.38200e+03	0.0245139	481.0
1383	4.81633e+02	1.38300e+03	0.0244999	481.5
1384	4.82123e+02	1.38400e+03	0.0244851	482.0
1385	4.82619e+02	1.38500e+03	0.0244777	482.5
1386	4.83097e+02	1.38600e+03	0.0244768	483.0
1387	4.83596e+02	1.38700e+03	0.0244796	483.5
1388	4.84089e+02	1.38800e+03	0.0244933	484.0
1389	4.84600e+02	1.38900e+03	0.0244993	484.5
1390	4.85082e+02	1.39000e+03	0.0244998	485.0
1391	4.85571e+02	1.39100e+03	0.0244972	485.5
1392	4.86059e+02	1.39200e+03	0.0244871	486.0
1393	4.86553e+02	1.39300e+03	0.0244737	486.5
1394	4.87029e+02	1.39400e+03	0.0244585	487.0
1395	4.87525e+02	1.39500e+03	0.0244429	487.5
1396	4.88030e+02	1.39600e+03	0.0244145	488.0
1397	4.88521e+02	1.39700e+03	0.0243931	488.5
1398	4.89011e+02	1.39800e+03	0.0243711	489.0
1399	4.89496e+02	1.39900e+03	0.024348	489.5
1400	4.89992e+02	1.40000e+03	0.0243313	490.0
1401	4.90481e+02	1.40100e+03	0.0243159	490.5
1402	4.90975e+02	1.40200e+03	0.0243049	491.0
1403	4.91474e+02	1.40300e+03	0.0242974	491.5
1404	4.91957e+02	1.40400e+03	0.0243008	492.0
1405	4.92446e+02	1.40500e+03	0.0243021	492.5
1406	4.92936e+02	1.40600e+03	0.0243018	493.0
1407	4.93424e+02	1.40700e+03	0.0243006	493.5
1408	4.93920e+02	1.40800e+03	0.0243026	494.0
1409	4.94410e+02	1.40900e+03	0.0242982	494.5
1410	4.94904e+02	1.41000e+03	0.0242936	495.0
1411	4.95389e+02	1.41100e+03	0.0242904	495.5
1412	4.95890e+02	1.41200e+03	0.0242833	496.0
1413	4.96381e+02	1.41300e+03	0.0242834	496.5
1414	4.96864e+02	1.41400e+03	0.0242847	497.0
1415	4.97364e+02	1.41500e+03	0.0242853	497.5
1416	4.97854e+02	1.41600e+03	0.0242933	498.0
1417	4.98344e+02	1.41700e+03	0.0242952	498.5
1418	4.98831e+02	1.41800e+03	0.0242973	499.0
1419	4.99323e+02	1.41900e+03	0.0243006	499.5
1420	4.99813e+02	1.42000e+03	0.0243008	500.0
1421	5.00310e+02	1.42100e+03	0.024305	500.5
1422	5.00786e+02	1.42200e+03	0.0243086	501.0
1423	5.01260e+02	1.42300e+03	0.0243098	501.5
1424	5.01755e+02	1.42400e+03	0.0243072	502.0
1425	5.02244e+02	1.42500e+03	0.0242977	502.5
1426	5.02722e+02	1.42600e+03	0.0242843	503.0
1427	5.03211e+02	1.42700e+03	0.0242691	503.5
1428	5.03705e+02	1.42800e+03	0.0242395	504.0
1429	5.04194e+02	1.42900e+03	0.024222	504.5
1430	5.04677e+02	1.43000e+03	0.0242084	505.0
1431	5.05158e+02	1.43100e+03	0.0241956	505.5
1432	5.05655e+02	1.43200e+03	0.0241885	506.0
1433	5.06131e+02	1.43300e+03	0.0241772	506.5
1434	5.06627e+02	1.43400e+03	0.0241656	507.0
1435	5.07124e+02	1.43500e+03	0.0241549	507.5
1436	5.07613e+02	1.43600e+03	0.0241477	508.0
1437	5.08102e+02	1.43700e+03	0.0241437	508.5
1438	5.08585e+02	1.43800e+03	0.0241425	509.0
1439	5.09075e+02	1.43900e+03	0.0241427	509.5
1440	5.09576e+02	1.44000e+03	0.0241506	510.0
1441	5.10062e+02	1.44100e+03	0.0241544	510.5
1442	5.10555e+02	1.44200e+03	0.0241588	511.0
1443	5.11043e+02	1.44300e+03	0.0241641	511.5
1444	5.11535e+02	1.44400e+03	0.0241753	512.0
1445	5.12034e+02	1.44500e+03	0.0241897	512.5
1446	5.12521e+02	1.44600e+03	0.0242064	513.0
1447	5.13013e+02	1.44700e+03	0.0242243	513.5
1448	5.13504e+02	1.44800e+03	0.0242509	514.0
1449	5.13998e+02	1.44900e+03	0.0242702	514.5
1450	5.14488e+02	1.45000e+03	0.0242865	515.0
1451	5.14990e+02	1.45100e+03	0.0243017	515.5
1452	5.15479e+02	1.45200e+03	0.0243108	516.0
1453	5.15970e+02	1.45300e+03	0.0243214	516.5
1454	5.16471e+02	1.45400e+03	0.0243306	517.0
1455	5.16972e+02	1.45500e+03	0.0243377	517.5
1456	5.17475e+02	1.45600e+03	0.0243322	518.0
1457	5.17965e+02	1.45700e+03	0.0243223	518.5
1458	5.18468e+02	1.45800e+03	0.0243053	519.0
1459	5.18959e+02	1.45900e+03	0.0242837	519.5
1460	5.19458e+02	1.46000e+03	0.0242409	520.0
1461	5.19954e+02	1.46100e+03	0.0242085	520.5
1462	5.20453e+02	1.46200e+03	0.0241804	521.0
1463	5.20966e+02	1.46300e+03	0.0241548	521.5
1464	5.21460e+02	1.46400e+03	0.0241354	522.0
1465	5.21947e+02	1.46500e+03	0.0241231	522.5
1466	5.22447e+02	1.46600e+03	0.0241176	523.0
1467	5.22939e+02	1.46700e+03	0.0241167	523.5
1468	5.23433e+02	1.46800e+03	0.0241451	524.0
1469	5.23926e+02	1.46900e+03	0.0241672	524.5
1470	5.24429e+02	1.47000e+03	0.0241923	525.0
1471	5.24917e+02	1.47100e+03	0.0242203	525.5
1472	5.25414e+02	1.47200e+03	0.0242569	526.0
1473	5.25898e+02	1.47300e+03	0.0242789	526.5
1474	5.26402e+02	1.47400e+03	0.0242916	527.0
1475	5.26895e+02	1.47500e+03	0.0242989	527.5
1476	5.27391e+02	1.47600e+03	0.0242834	528.0
1477	5.27886e+02	1.47700e+03	0.0242747	528.5
1478	5.28380e+02	1.47800e+03	0.0242687	529.0
1479	5.28870e+02	1.47900e+03	0.0242642	529.5
1480	5.29366e+02	1.48000e+03	0.0242527	530.0
1481	5.29857e+02	1.48100e+03	0.0242479	530.5
1482	5.30353e+02	1.48200e+03	0.0242422	531.0
1483	5.30848e+02	1.48300e+03	0.0242344	531.5
1484	5.31352e+02	1.48400e+03	0.02423	532.0
1485	5.31833e+02	1.48500e+03	0.02422	532.5
1486	5.32325e+02	1.48600e+03	0.0242096	533.0
1487	5.32819e+02	1.48700e+03	0.0242	533.5
1488	5.33312e+02	1.48800e+03	0.0241839	534.0
1489	5.33809e+02	1.48900e+03	0.0241741	534.5
1490	5.34313e+02	1.49000e+03	0.0241634	535.0
1491	5.34815e+02	1.49100e+03	0.0241507	535.5
1492	5.35323e+02	1.49200e+03	0.0241408	536.0
1493	5.35827e+02	1.49300e+03	0.0241269	536.5
1494	5.36327e+02	1.49400e+03	0.0241135	537.0
1495	5.36815e+02	1.49500e+03	0.0241015	537.5
1496	5.37318e+02	1.49600e+03	0.0240859	538.0
1497	5.37830e+02	1.49700e+03	0.0240759	538.5
1498	5.38343e+02	1.49800e+03	0.0240681	539.0
1499	5.38832e+02	1.49900e+03	0.0240616	539.5
1500	5.39333e+02	1.50000e+03	0.0240658	540.0
1501	5.39846e+02	1.50100e+03	0.0240675	540.5
1502	5.40331e+02	1.50200e+03	0.0240716	541.0
1503	5.40817e+02	1.50300e+03	0.0240773	541.5
1504	5.41317e+02	1.50400e+03	0.0240864	542.0
1505	5.41812e+02	1.50500e+03	0.0240906	542.5
1506	5.42311e+02	1.50600e+03	0.024088	543.0
1507	5.42810e+02	1.50700e+03	0.0240803	543.5
1508	5.43311e+02	1.50800e+03	0.0240537	544.0
1509	5.43798e+02	1.50900e+03	0.0240241	544.5
1510	5.44303e+02	1.51000e+03	0.0239939	545.0
1511	5.44805e+02	1.51100e+03	0.0239649	545.5
1512	5.45315e+02	1.51200e+03	0.0239227	546.0
1513	5.45813e+02	1.51300e+03	0.023899	546.5
1514	5.46316e+02	1.51400e+03	0.0238826	547.0
1515	5.46835e+02	1.51500e+03	0.0238687	547.5
1516	5.47338e+02	1.51600e+03	0.0238773	548.0
1517	5.47855e+02	1.51700e+03	0.023874	548.5
1518	5.48365e+02	1.51800e+03	0.0238718	549.0
1519	5.48869e+02	1.51900e+03	0.0238726	549.5
1520	5.49368e+02	1.52000e+03	0.023881	550.0
1521	5.49875e+02	1.52100e+03	0.0238927	550.5
1522	5.50364e+02	1.52200e+03	0.0239052	551.0
1523	5.50866e+02	1.52300e+03	0.0239169	551.5
1524	5.51384e+02	1.52400e+03	0.0239361	552.0
1525	5.51910e+02	1.52500e+03	0.0239465	552.5
1526	5.52443e+02	1.52600e+03	0.0239543	553.0
1527	5.52970e+02	1.52700e+03	0.0239614	553.5
1528	5.53554e+02	1.52800e+03	0.023958	554.0
1529	5.54167e+02	1.52900e+03	0.0239616	554.5
1530	5.54804e+02	1.53000e+03	0.0239665	555.0
1531	5.55170e+02	1.53100e+03	0.0239705	555.5
1532	5.55623e+02	1.53200e+03	0.0239721	556.0
1533	5.56030e+02	1.53300e+03	0.023971	556.5
1534	5.56493e+02	1.53400e+03	0.02397	557.0
1535	5.56957e+02	1.53500e+03	0.0239703	557.5
1536	5.57443e+02	1.53600e+03	0.0239708	558.0
1537	5.57924e+02	1.53700e+03	0.0239789	558.5
1538	5.58417e+02	1.53800e+03	0.0239911	559.0
1539	5.58918e+02	1.53900e+03	0.0240047	559.5
1540	5.59404e+02	1.54000e+03	0.0240276	560.0
1541	5.59911e+02	1.54100e+03	0.02404	560.5
1542	5.60411e+02	1.54200e+03	0.024047	561.0
1543	5.60901e+02	1.54300e+03	0.0240512	561.5
1544	5.61387e+02	1.54400e+03	0.0240393	562.0
1545	5.61873e+02	1.54500e+03	0.0240285	562.5
1546	5.62361e+02	1.54600e+03	0.0240147	563.0
1547	5.62854e+02	1.54700e+03	0.0239981	563.5
1548	5.63336e+02	1.54800e+03	0.0239643	564.0
1549	5.63828e+02	1.54900e+03	0.0239353	564.5
1550	5.64327e+02	1.55000e+03	0.0239059	565.0
1551	5.64811e+02	1.55100e+03	0.0238759	565.5
1552	5.65304e+02	1.55200e+03	0.0238476	566.0
1553	5.65791e+02	1.55300e+03	0.0238294	566.5
1554	5.66287e+02	1.55400e+03	0.0238203	567.0
1555	5.66779e+02	1.55500e+03	0.0238174	567.5
1556	5.67270e+02	1.55600e+03	0.0238388	568.0
1557	5.67766e+02	1.55700e+03	0.0238521	568.5
1558	5.68255e+02	1.55800e+03	0.0238637	569.0
1559	5.68749e+02	1.55900e+03	0.0238754	569.5
1560	5.69232e+02	1.56000e+03	0.0238951	570.0
1561	5.69725e+02	1.56100e+03	0.0239089	570.5
1562	5.70215e+02	1.56200e+03	0.0239221	571.0
1563	5.70697e+02	1.56300e+03	0.0239353	571.5
1564	5.71208e+02	1.56400e+03	0.0239419	572.0
1565	5.71706e+02	1.56500e+03	0.0239503	572.5
1566	5.72202e+02	1.56600e+03	0.0239558	573.0
1567	5.72685e+02	1.56700e+03	0.0239587	573.5
1568	5.73186e+02	1.56800e+03	0.0239593	574.0
1569	5.73680e+02	1.56900e+03	0.0239603	574.5
1570	5.74175e+02	1.57000e+03	0.0239621	575.0
1571	5.74665e+02	1.57100e+03	0.0239646	575.5
1572	5.75169e+02	1.57200e+03	0.0239638	576.0
1573	5.75660e+02	1.57300e+03	0.0239634	576.5
1574	5.76157e+02	1.57400e+03	0.0239603	577.0
1575	5.76665e+02	1.57500e+03	0.0239548	577.5
1576	5.77163e+02	1.57600e+03	0.0239462	578.0
1577	5.77662e+02	1.57700e+03	0.0239384	578.5
1578	5.78147e+02	1.57800e+03	0.0239326	579.0
1579	5.78645e+02	1.57900e+03	0.0239285	579.5
1580	5.79142e+02	1.58000e+03	0.023925	580.0
1581	5.79641e+02	1.58100e+03	0.023926	580.5
1582	5.80133e+02	1.58200e+03	0.023928	581.0
1583	5.80629e+02	1.58300e+03	0.0239294	581.5
1584	5.81120e+02	1.58400e+03	0.0239361	582.0
1585	5.81627e+02	1.58500e+03	0.0239366	582.5
1586	5.82129e+02	1.58600e+03	0.0239365	583.0
1587	5.82624e+02	1.58700e+03	0.0239376	583.5
1588	5.83129e+02	1.58800e+03	0.0239382	584.0
1589	5.83638e+02	1.58900e+03	0.0239459	584.5
1590	5.84129e+02	1.59000e+03	0.0239556	585.0
1591	5.84624e+02	1.59100e+03	0.0239652	585.5
1592	5.85121e+02	1.59200e+03	0.0239818	586.0
1593	5.85635e+02	1.59300e+03	0.0239901	586.5
1594	5.86143e+02	1.59400e+03	0.023996	587.0
1595	5.86655e+02	1.59500e+03	0.0240013	587.5
1596	5.87166e+02	1.59600e+03	0.0240004	588.0
1597	5.87680e+02	1.59700e+03	0.0240051	588.5
1598	5.88186e+02	1.59800e+03	0.0240101	589.0
1599	5.88684e+02	1.59900e+03	0.0240144	589.5
1600	5.89186e+02	1.60000e+03	0.024016	590.0
1601	5.89663e+02	1.60100e+03	0.0240128	590.5
1602	5.90148e+02	1.60200e+03	0.0240102	591.0
1603	5.90641e+02	1.60300e+03	0.0240086	591.5
1604	5.91137e+02	1.60400e+03	0.0239988	592.0
1605	5.91626e+02	1.60500e+03	0.0239953	592.5
1606	5.92127e+02	1.60600e+03	0.0239923	593.0
1607	5.92652e+02	1.60700e+03	0.0239884	593.5
1608	5.93162e+02	1.60800e+03	0.0239838	594.0
1609	5.93662e+02	1.60900e+03	0.0239751	594.5
1610	5.94173e+02	1.61000e+03	0.0239662	595.0
1611	5.94676e+02	1.61100e+03	0.0239584	595.5
1612	5.95183e+02	1.61200e+03	0.0239474	596.0
1613	5.95713e+02	1.61300e+03	0.0239434	596.5
1614	5.96253e+02	1.61400e+03	0.0239427	597.0
1615	5.96818e+02	1.61500e+03	0.0239434	597.5
1616	5.97388e+02	1.61600e+03	0.0239547	598.0
1617	5.97854e+02	1.61700e+03	0.0239592	598.5
1618	5.98522e+02	1.61800e+03	0.0239636	599.0
1619	5.99578e+02	1.61900e+03	0.0239698	599.5
1620	6.01836e+02	1.62000e+03	0.0239791	600.0
1621	6.01958e+02	1.62100e+03	0.0239896	600.5
1622	6.02311e+02	1.62200e+03	0.0240002	601.0
1623	6.02730e+02	1.62300e+03	0.0240101	601.5
1624	6.03156e+02	1.62400e+03	0.0240154	602.0
1625	6.03595e+02	1.62500e+03	0.0240102	602.5
1626	6.04038e+02	1.62600e+03	0.0239982	603.0
1627	6.04508e+02	1.62700e+03	0.023983	603.5
1628	6.04952e+02	1.62800e+03	0.0239466	604.0
1629	6.05403e+02	1.62900e+03	0.0239224	604.5
1630	6.05848e+02	1.63000e+03	0.0239017	605.0
1631	6.06306e+02	1.63100e+03	0.023882	605.5
1632	6.06783e+02	1.63200e+03	0.0238652	606.0
1633	6.07245e+02	1.63300e+03	0.023846	606.5
1634	6.07728e+02	1.63400e+03	0.0238242	607.0
1635	6.08204e+02	1.63500e+03	0.0238016	607.5
1636	6.08686e+02	1.63600e+03	0.0237828	608.0
1637	6.09170e+02	1.63700e+03	0.0237654	608.5
1638	6.09651e+02	1.63800e+03	0.0237518	609.0
1639	6.10135e+02	1.63900e+03	0.0237414	609.5
1640	6.10622e+02	1.64000e+03	0.0237392	610.0
1641	6.11109e+02	1.64100e+03	0.0237367	610.5
1642	6.11585e+02	1.64200e+03	0.0237349	611.0
1643	6.12067e+02	1.64300e+03	0.0237338	611.5
1644	6.12555e+02	1.64400e+03	0.0237456	612.0
1645	6.13046e+02	1.64500e+03	0.0237569	612.5
1646	6.13533e+02	1.64600e+03	0.0237728	613.0
1647	6.14004e+02	1.64700e+03	0.023792	613.5
1648	6.14497e+02	1.64800e+03	0.0238206	614.0
1649	6.14985e+02	1.64900e+03	0.0238438	614.5
1650	6.15470e+02	1.65000e+03	0.0238632	615.0
1651	6.15954e+02	1.65100e+03	0.0238795	615.5
1652	6.16428e+02	1.65200e+03	0.0238898	616.0
1653	6.16913e+02	1.65300e+03	0.0238987	616.5
1654	6.17388e+02	1.65400e+03	0.0239081	617.0
1655	6.17868e+02	1.65500e+03	0.0239178	617.5
1656	6.18347e+02	1.65600e+03	0.0239211	618.0
1657	6.18831e+02	1.65700e+03	0.0239324	618.5
1658	6.19309e+02	1.65800e+03	0.0239439	619.0
1659	6.19787e+02	1.65900e+03	0.023954	619.5
1660	6.20274e+02	1.66000e+03	0.0239689	620.0
1661	6.20767e+02	1.66100e+03	0.0239765	620.5
1662	6.21212e+02	1.66200e+03	0.0239818	621.0
1663	6.21695e+02	1.66300e+03	0.0239865	621.5
1664	6.22168e+02	1.66400e+03	0.0239788	622.0
1665	6.22662e+02	1.66500e+03	0.0239751	622.5
1666	6.23139e+02	1.66600e+03	0.0239685	623.0
1667	6.23626e+02	1.66700e+03	0.0239576	623.5
1668	6.24110e+02	1.66800e+03	0.0239361	624.0
1669	6.24601e+02	1.66900e+03	0.0239157	624.5
1670	6.25090e+02	1.67000e+03	0.0238981	625.0
1671	6.25571e+02	1.67100e+03	0.0238839	625.5
1672	6.26064e+02	1.67200e+03	0.0238715	626.0
1673	6.26548e+02	1.67300e+03	0.0238693	626.5
1674	6.27033e+02	1.67400e+03	0.0238711	627.0
1675	6.27502e+02	1.67500e+03	0.0238736	627.5
1676	6.27985e+02	1.67600e+03	0.0238866	628.0
1677	6.28474e+02	1.67700e+03	0.0238814	628.5
1678	6.28964e+02	1.67800e+03	0.0238685	629.0
1679	6.29441e+02	1.67900e+03	0.0238524	629.5
1680	6.29932e+02	1.68000e+03	0.0238159	630.0
1681	6.30427e+02	1.68100e+03	0.0237946	630.5
1682	6.30898e+02	1.68200e+03	0.0237793	631.0
1683	6.31375e+02	1.68300e+03	0.0237662	631.5
1684	6.31857e+02	1.68400e+03	0.0237666	632.0
1685	6.32342e+02	1.68500e+03	0.0237681	632.5
1686	6.32816e+02	1.68600e+03	0.0237753	633.0
1687	6.33291e+02	1.68700e+03	0.023787	633.5
1688	6.33742e+02	1.68800e+03	0.0238221	634.0
1689	6.34233e+02	1.68900e+03	0.0238514	634.5
1690	6.34698e+02	1.69000e+03	0.0238805	635.0
1691	6.35170e+02	1.69100e+03	0.0239093	635.5
1692	6.35652e+02	1.69200e+03	0.023939	636.0
1693	6.36131e+02	1.69300e+03	0.023957	636.5
1694	6.36607e+02	1.69400e+03	0.0239685	637.0
1695	6.37095e+02	1.69500e+03	0.0239769	637.5
1696	6.37584e+02	1.69600e+03	0.0239648	638.0
1697	6.38073e+02	1.69700e+03	0.0239645	638.5
1698	6.38559e+02	1.69800e+03	0.0239669	639.0
1699	6.39050e+02	1.69900e+03	0.0239693	639.5
1700	6.39529e+02	1.70000e+03	0.0239705	640.0
1701	6.40015e+02	1.70100e+03	0.0239691	640.5
1702	6.40504e+02	1.70200e+03	0.0239663	641.0
1703	6.40994e+02	1.70300e+03	0.0239632	641.5
1704	6.41486e+02	1.70400e+03	0.0239576	642.0
1705	6.41969e+02	1.70500e+03	0.0239534	642.5
1706	6.42451e+02	1.70600e+03	0.0239483	643.0
1707	6.42950e+02	1.70700e+03	0.0239422	643.5
1708	6.43434e+02	1.70800e+03	0.0239332	644.0
1709	6.43911e+02	1.70900e+03	0.0239217	644.5
1710	6.44405e+02	1.71000e+03	0.0239086	645.0
1711	6.44880e+02	1.71100e+03	0.0238961	645.5
1712	6.45370e+02	1.71200e+03	0.0238861	646.0
1713	6.45845e+02	1.71300e+03	0.0238848	646.5
1714	6.46334e+02	1.71400e+03	0.0238897	647.0
1715	6.46829e+02	1.71500e+03	0.0238981	647.5
1716	6.47309e+02	1.71600e+03	0.0239251	648.0
1717	6.47787e+02	1.71700e+03	0.0239422	648.5
1718	6.48266e+02	1.71800e+03	0.0239553	649.0
1719	6.48748e+02	1.71900e+03	0.0239662	649.5
1720	6.49237e+02	1.72000e+03	0.0239737	650.0
1721	6.49723e+02	1.72100e+03	0.0239792	650.5
1722	6.50202e+02	1.72200e+03	0.0239824	651.0
1723	6.50700e+02	1.72300e+03	0.0239837	651.5
1724	6.51190e+02	1.72400e+03	0.0239685	652.0
1725	6.51675e+02	1.72500e+03	0.0239529	652.5
1726	6.52159e+02	1.72600e+03	0.0239306	653.0
1727	6.52646e+02	1.72700e+03	0.0239024	653.5
1728	6.53130e+02	1.72800e+03	0.023854	654.0
1729	6.53616e+02	1.72900e+03	0.0238154	654.5
1730	6.54098e+02	1.73000e+03	0.0237829	655.0
1731	6.54597e+02	1.73100e+03	0.0237537	655.5
1732	6.55074e+02	1.73200e+03	0.0237268	656.0
1733	6.55558e+02	1.73300e+03	0.0237061	656.5
1734	6.56044e+02	1.73400e+03	0.0236867	657.0
1735	6.56528e+02	1.73500e+03	0.0236668	657.5
1736	6.57010e+02	1.73600e+03	0.0236636	658.0
1737	6.57506e+02	1.73700e+03	0.0236527	658.5
1738	6.57982e+02	1.73800e+03	0.0236433	659.0
1739	6.58472e+02	1.73900e+03	0.0236364	659.5
1740	6.58965e+02	1.74000e+03	0.0236351	660.0
1741	6.59455e+02	1.74100e+03	0.023638	660.5
1742	6.59937e+02	1.74200e+03	0.0236416	661.0
1743	6.60425e+02	1.74300e+03	0.0236447	661.5
1744	6.60917e+02	1.74400e+03	0.0236571	662.0
1745	6.61408e+02	1.74500e+03	0.0236621	662.5
1746	6.61881e+02	1.74600e+03	0.0236667	663.0
1747	6.62381e+02	1.74700e+03	0.0236717	663.5
1748	6.62866e+02	1.74800e+03	0.023669	664.0
1749	6.63361e+02	1.74900e+03	0.02367	664.5
1750	6.63849e+02	1.75000e+03	0.0236701	665.0
1751	6.64343e+02	1.75100e+03	0.0236687	665.5
1752	6.64824e+02	1.75200e+03	0.0236675	666.0
1753	6.65310e+02	1.75300e+03	0.0236689	666.5
1754	6.65805e+02	1.75400e+03	0.0236759	667.0
1755	6.66289e+02	1.75500e+03	0.0236872	667.5
1756	6.66781e+02	1.75600e+03	0.0237109	668.0
1757	6.67276e+02	1.75700e+03	0.0237358	668.5
1758	6.67753e+02	1.75800e+03	0.0237599	669.0
1759	6.68240e+02	1.75900e+03	0.0237822	669.5
1760	6.68740e+02	1.76000e+03	0.0238083	670.0
1761	6.69233e+02	1.76100e+03	0.0238217	670.5
1762	6.69719e+02	1.76200e+03	0.023831	671.0
1763	6.70217e+02	1.76300e+03	0.0238386	671.5
1764	6.70701e+02	1.76400e+03	0.0238234	672.0
1765	6.71184e+02	1.76500e+03	0.0238207	672.5
1766	6.71673e+02	1.76600e+03	0.0238199	673.0
1767	6.72159e+02	1.76700e+03	0.0238185	673.5
1768	6.72648e+02	1.76800e+03	0.0238193	674.0
1769	6.73140e+02	1.76900e+03	0.0238197	674.5
1770	6.73621e+02	1.77000e+03	0.0238214	675.0
1771	6.74114e+02	1.77100e+03	0.0238241	675.5
1772	6.74605e+02	1.77200e+03	0.0238285	676.0
1773	6.75095e+02	1.77300e+03	0.0238322	676.5
1774	6.75589e+02	1.77400e+03	0.0238333	677.0
1775	6.76063e+02	1.77500e+03	0.0238309	677.5
1776	6.76541e+02	1.77600e+03	0.0238124	678.0
1777	6.77030e+02	1.77700e+03	0.0237868	678.5
1778	6.77520e+02	1.77800e+03	0.0237564	679.0
1779	6.78010e+02	1.77900e+03	0.0237234	679.5
1780	6.78501e+02	1.78000e+03	0.0236692	680.0
1781	6.78986e+02	1.78100e+03	0.0236357	680.5
1782	6.79487e+02	1.78200e+03	0.0236106	681.0
1783	6.79966e+02	1.78300e+03	0.0235886	681.5
1784	6.80457e+02	1.78400e+03	0.023584	682.0
1785	6.80938e+02	1.78500e+03	0.0235721	682.5
1786	6.81432e+02	1.78600e+03	0.0235613	683.0
1787	6.81926e+02	1.78700e+03	0.0235525	683.5
1788	6.82411e+02	1.78800e+03	0.0235527	684.0
1789	6.82897e+02	1.78900e+03	0.0235534	684.5
1790	6.83391e+02	1.79000e+03	0.0235556	685.0
1791	6.83888e+02	1.79100e+03	0.0235582	685.5
1792	6.84374e+02	1.79200e+03	0.0235634	686.0
1793	6.84862e+02	1.79300e+03	0.0235602	686.5
1794	6.85364e+02	1.79400e+03	0.0235554	687.0
1795	6.85566e+02	1.79500e+03	0.0235521	687.5
1796	6.85739e+02	1.79600e+03	0.0235514	688.0
1797	6.86024e+02	1.79700e+03	0.0235635	688.5
1798	6.86377e+02	1.79800e+03	0.0235824	689.0
1799	6.86730e+02	1.79900e+03	0.0236034	689.5
1800	6.87091e+02	1.80000e+03	0.023648	690.0
1801	6.87437e+02	1.80100e+03	0.0236743	690.5
1802	6.87763e+02	1.80200e+03	0.0236891	691.0
1803	6.88074e+02	1.80300e+03	0.0236974	691.5
1804	6.88384e+02	1.80400e+03	0.0236958	692.0
1805	6.88684e+02	1.80500e+03	0.0236978	692.5
1806	6.88969e+02	1.80600e+03	0.0236992	693.0
1807	6.89245e+02	1.80700e+03	0.0236994	693.5
1808	6.89511e+02	1.80800e+03	0.0236896	694.0
1809	6.89777e+02	1.80900e+03	0.0236812	694.5
1810	6.90016e+02	1.81000e+03	0.0236683	695.0
1811	6.90272e+02	1.81100e+03	0.0236522	695.5
1812	6.90521e+02	1.81200e+03	0.0236293	696.0
1813	6.90734e+02	1.81300e+03	0.0236086	696.5
1814	6.90963e+02	1.81400e+03	0.0235895	697.0
1815	6.91167e+02	1.81500e+03	0.0235717	697.5
1816	6.91367e+02	1.81600e+03	0.0235446	698.0
1817	6.91573e+02	1.81700e+03	0.0235183	698.5
1818	6.91763e+02	1.81800e+03	0.0234899	699.0
1819	6.91956e+02	1.81900e+03	0.0234594	699.5
1820	6.92141e+02	1.82000e+03	0.0234216	700.0
1821	6.92326e+02	1.82100e+03	0.0233875	700.0
1822	6.92498e+02	1.82200e+03	0.0233594	700.0
1823	6.92673e+02	1.82300e+03	0.0233366	700.0
1824	6.92834e+02	1.82400e+03	0.0233249	700.0
1825	6.92989e+02	1.82500e+03	0.0233177	700.0
1826	6.93157e+02	1.82600e+03	0.0233148	700.0
1827	6.93304e+02	1.82700e+03	0.0233138	700.0
1828	6.93451e+02	1.82800e+03	0.0233315	700.0
1829	6.93589e+02	1.82900e+03	0.0233355	700.0
1830	6.93731e+02	1.83000e+03	0.0233373	700.0
1831	6.93875e+02	1.83100e+03	0.0233397	700.0
1832	6.94006e+02	1.83200e+03	0.0233297	700.0
1833	6.94125e+02	1.83300e+03	0.0233192	700.0
1834	6.94253e+02	1.83400e+03	0.0233019	700.0
1835	6.94377e+02	1.83500e+03	0.0232798	700.0
1836	6.94493e+02	1.83600e+03	0.0232448	700.0
1837	6.94609e+02	1.83700e+03	0.023217	700.0
1838	6.94723e+02	1.83800e+03	0.0231972	700.0
1839	6.94828e+02	1.83900e+03	0.0231833	700.0
1840	6.94935e+02	1.84000e+03	0.0231842	700.0
1841	6.95045e+02	1.84100e+03	0.0231964	700.0
1842	6.95132e+02	1.84200e+03	0.0232184	700.0
1843	6.95225e+02	1.84300e+03	0.0232464	700.0
1844	6.95325e+02	1.84400e+03	0.0233144	700.0
1845	6.95425e+02	1.84500e+03	0.0233638	700.0
1846	6.95514e+02	1.84600e+03	0.0234106	700.0
1847	6.95604e+02	1.84700e+03	0.0234575	700.0
1848	6.95681e+02	1.84800e+03	0.0235017	700.0
1849	6.95774e+02	1.84900e+03	0.0235406	700.0
1850	6.95854e+02	1.85000e+03	0.0235708	700.0
1851	6.95928e+02	1.85100e+03	0.0235934	700.0
1852	6.96003e+02	1.85200e+03	0.0235851	700.0
1853	6.96084e+02	1.85300e+03	0.0235775	700.0
1854	6.96155e+02	1.85400e+03	0.0235673	700.0
1855	6.96211e+02	1.85500e+03	0.0235558	700.0
1856	6.96280e+02	1.85600e+03	0.0235212	700.0
1857	6.96345e+02	1.85700e+03	0.0235053	700.0
1858	6.96409e+02	1.85800e+03	0.0234952	700.0
1859	6.96480e+02	1.85900e+03	0.0234867	700.0
1860	6.96529e+02	1.86000e+03	0.0234866	700.0
1861	6.96586e+02	1.86100e+03	0.0234764	700.0
1862	6.96647e+02	1.86200e+03	0.0234643	700.0
1863	6.96700e+02	1.86300e+03	0.0234519	700.0
1864	6.96753e+02	1.86400e+03	0.0234304	700.0
1865	6.96807e+02	1.86500e+03	0.023414	700.0
1866	6.96862e+02	1.86600e+03	0.0233983	700.0
1867	6.96912e+02	1.86700e+03	0.0233814	700.0
1868	6.96962e+02	1.86800e+03	0.0233598	700.0
1869	6.97018e+02	1.86900e+03	0.0233338	700.0
1870	6.97057e+02	1.87000e+03	0.0233048	700.0
1871	6.97106e+02	1.87100e+03	0.0232753	700.0
1872	6.97157e+02	1.87200e+03	0.0232402	700.0
1873	6.97196e+02	1.87300e+03	0.0232131	700.0
1874	6.97236e+02	1.87400e+03	0.0231906	700.0
1875	6.97276e+02	1.87500e+03	0.0231708	700.0
1876	6.97317e+02	1.87600e+03	0.0231659	700.0
1877	6.97359e+02	1.87700e+03	0.0231585	700.0
1878	6.97392e+02	1.87800e+03	0.0231513	700.0
1879	6.97438e+02	1.87900e+03	0.0231453	700.0
1880	6.97478e+02	1.88000e+03	0.0231589	700.0
1881	6.97517e+02	1.88100e+03	0.0231753	700.0
1882	6.97550e+02	1.88200e+03	0.0232018	700.0
1883	6.97596e+02	1.88300e+03	0.0232355	700.0
1884	6.97634e+02	1.88400e+03	0.0232935	700.0
1885	6.97665e+02	1.88500e+03	0.0233411	700.0
1886	6.97687e+02	1.88600e+03	0.0233844	700.0
1887	6.97721e+02	1.88700e+03	0.0234252	700.0
1888	6.97765e+02	1.88800e+03	0.0234576	700.0
1889	6.97797e+02	1.88900e+03	0.0234789	700.0
1890	6.97832e+02	1.89000e+03	0.0234949	700.0
1891	6.97861e+02	1.89100e+03	0.0235087	700.0
1892	6.97885e+02	1.89200e+03	0.0234891	700.0
1893	6.97914e+02	1.89300e+03	0.0234798	700.0
1894	6.97926e+02	1.89400e+03	0.0234653	700.0
1895	6.97958e+02	1.89500e+03	0.0234458	700.0
1896	6.97979e+02	1.89600e+03	0.023416	700.0
1897	6.98007e+02	1.89700e+03	0.0233898	700.0
1898	6.98036e+02	1.89800e+03	0.0233644	700.0
1899	6.98053e+02	1.89900e+03	0.0233393	700.0
1900	6.98074e+02	1.90000e+03	0.0233115	700.0
1901	6.98098e+02	1.90100e+03	0.0232866	700.0
1902	6.98112e+02	1.90200e+03	0.0232617	700.0
1903	6.98140e+02	1.90300e+03	0.0232377	700.0
1904	6.98171e+02	1.90400e+03	0.0232255	700.0
1905	6.98184e+02	1.90500e+03	0.023214	700.0
1906	6.98209e+02	1.90600e+03	0.0232064	700.0
1907	6.98231e+02	1.90700e+03	0.023202	700.0
1908	6.98250e+02	1.90800e+03	0.0232127	700.0
1909	6.98258e+02	1.90900e+03	0.0232202	700.0
1910	6.98282e+02	1.91000e+03	0.023228	700.0
1911	6.98301e+02	1.91100e+03	0.0232363	700.0
1912	6.98322e+02	1.91200e+03	0.023249	700.0
1913	6.98328e+02	1.91300e+03	0.0232571	700.0
1914	6.98349e+02	1.91400e+03	0.0232667	700.0
1915	6.98367e+02	1.91500e+03	0.0232789	700.0
1916	6.98383e+02	1.91600e+03	0.0232901	700.0
1917	6.98400e+02	1.91700e+03	0.0233063	700.0
1918	6.98402e+02	1.91800e+03	0.0233253	700.0
1919	6.98430e+02	1.91900e+03	0.0233446	700.0
1920	6.98446e+02	1.92000e+03	0.0233713	700.0
1921	6.98451e+02	1.92100e+03	0.0233914	700.0
1922	6.98474e+02	1.92200e+03	0.0234094	700.0
1923	6.98485e+02	1.92300e+03	0.0234266	700.0
1924	6.98497e+02	1.92400e+03	0.02344	700.0
1925	6.98517e+02	1.92500e+03	0.0234566	700.0
1926	6.98522e+02	1.92600e+03	0.023474	700.0
1927	6.98540e+02	1.92700e+03	0.0234917	700.0
1928	6.98562e+02	1.92800e+03	0.0235091	700.0
1929	6.98567e+02	1.92900e+03	0.0235208	700.0
1930	6.98573e+02	1.93000e+03	0.0235267	700.0
1931	6.98574e+02	1.93100e+03	0.023529	700.0
1932	6.98593e+02	1.93200e+03	0.0235189	700.0
1933	6.98606e+02	1.93300e+03	0.0235128	700.0
1934	6.98618e+02	1.93400e+03	0.0235074	700.0
1935	6.98631e+02	1.93500e+03	0.0235018	700.0
1936	6.98646e+02	1.93600e+03	0.0234897	700.0
1937	6.98652e+02	1.93700e+03	0.0234857	700.0
1938	6.98651e+02	1.93800e+03	0.0234858	700.0
1939	6.98671e+02	1.93900e+03	0.0234866	700.0
1940	6.98681e+02	1.94000e+03	0.0234903	700.0
1941	6.98681e+02	1.94100e+03	0.0234882	700.0
1942	6.98698e+02	1.94200e+03	0.0234829	700.0
1943	6.98695e+02	1.94300e+03	0.0234758	700.0
1944	6.98702e+02	1.94400e+03	0.0234653	700.0
1945	6.98716e+02	1.94500e+03	0.0234607	700.0
1946	6.98720e+02	1.94600e+03	0.0234577	700.0
1947	6.98725e+02	1.94700e+03	0.0234545	700.0
1948	6.98748e+02	1.94800e+03	0.0234548	700.0
1949	6.98747e+02	1.94900e+03	0.0234538	700.0
1950	6.98743e+02	1.95000e+03	0.0234534	700.0
1951	6.98757e+02	1.95100e+03	0.0234525	700.0
1952	6.98773e+02	1.95200e+03	0.0234444	700.0
1953	6.98782e+02	1.95300e+03	0.0234359	700.0
1954	6.98785e+02	1.95400e+03	0.0234272	700.0
1955	6.98790e+02	1.95500e+03	0.0234176	700.0
1956	6.98797e+02	1.95600e+03	0.0234	700.0
1957	6.98805e+02	1.95700e+03	0.0233878	700.0
1958	6.98810e+02	1.95800e+03	0.0233791	700.0
1959	6.98823e+02	1.95900e+03	0.0233726	700.0
1960	6.98820e+02	1.96000e+03	0.0233809	700.0
1961	6.98829e+02	1.96100e+03	0.0233956	700.0
1962	6.98828e+02	1.96200e+03	0.0234184	700.0
1963	6.98836e+02	1.96300e+03	0.0234452	700.0
1964	6.98844e+02	1.96400e+03	0.0234935	700.0
1965	6.98850e+02	1.96500e+03	0.0235279	700.0
1966	6.98846e+02	1.96600e+03	0.0235573	700.0
1967	6.98865e+02	1.96700e+03	0.0235843	700.0
1968	6.98865e+02	1.96800e+03	0.0235983	700.0
1969	6.98875e+02	1.96900e+03	0.023611	700.0
1970	6.98880e+02	1.97000e+03	0.0236237	700.0
1971	6.98884e+02	1.97100e+03	0.0236367	700.0
1972	6.98879e+02	1.97200e+03	0.0236333	700.0
1973	6.98877e+02	1.97300e+03	0.0236349	700.0
1974	6.98891e+02	1.97400e+03	0.0236318	700.0
1975	6.98895e+02	1.97500e+03	0.023624	700.0
1976	6.98900e+02	1.97600e+03	0.0236072	700.0
1977	6.98905e+02	1.97700e+03	0.0235899	700.0
1978	6.98917e+02	1.97800e+03	0.0235733	700.0
1979	6.98913e+02	1.97900e+03	0.0235577	700.0
1980	6.98911e+02	1.98000e+03	0.0235294	700.0
1981	6.98920e+02	1.98100e+03	0.0235067	700.0
1982	6.98923e+02	1.98200e+03	0.0234853	700.0
1983	6.98922e+02	1.98300e+03	0.0234642	700.0
1984	6.98927e+02	1.98400e+03	0.023449	700.0
1985	6.98937e+02	1.98500e+03	0.0234345	700.0
1986	6.98932e+02	1.98600e+03	0.0234222	700.0
1987	6.98947e+02	1.98700e+03	0.0234116	700.0
1988	6.98932e+02	1.98800e+03	0.0234108	700.0
1989	6.98948e+02	1.98900e+03	0.0234085	700.0
1990	6.98956e+02	1.99000e+03	0.023407	700.0
1991	6.98953e+02	1.99100e+03	0.0234064	700.0
1992	6.98953e+02	1.99200e+03	0.0234098	700.0
1993	6.98965e+02	1.99300e+03	0.0234085	700.0
1994	6.98970e+02	1.99400e+03	0.0234061	700.0
1995	6.98968e+02	1.99500e+03	0.0234049	700.0
1996	6.98976e+02	1.99600e+03	0.0234028	700.0
1997	6.98976e+02	1.99700e+03	0.023402	700.0
1998	6.98974e+02	1.99800e+03	0.0234011	700.0
1999	6.98970e+02	1.99900e+03	0.0234	700.0
2000	6.98971e+02	2.00000e+03	0.0234036	700.0
2001	6.98992e+02	2.00100e+03	0.0234054	700.0
2002	6.98983e+02	2.00200e+03	0.023407	700.0
2003	6.98987e+02	2.00300e+03	0.0234085	700.0
2004	6.98997e+02	2.00400e+03	0.023409	700.0
2005	6.98996e+02	2.00500e+03	0.0234076	700.0
2006	6.98993e+02	2.00600e+03	0.0234018	700.0
2007	6.98989e+02	2.00700e+03	0.023392	700.0
2008	6.98990e+02	2.00800e+03	0.023372	700.0
2009	6.99000e+02	2.00900e+03	0.0233537	700.0
2010	6.99000e+02	2.01000e+03	0.0233365	700.0
2011	6.99002e+02	2.01100e+03	0.0233211	700.0
2012	6.99004e+02	2.01200e+03	0.0233087	700.0
2013	6.99003e+02	2.01300e+03	0.0233054	700.0
2014	6.99003e+02	2.01400e+03	0.0233075	700.0
2015	6.99007e+02	2.01500e+03	0.0233128	700.0
2016	6.99009e+02	2.01600e+03	0.0233446	700.0
2017	6.99011e+02	2.01700e+03	0.0233675	700.0
2018	6.99003e+02	2.01800e+03	0.0233924	700.0
2019	6.99015e+02	2.01900e+03	0.023421	700.0
2020	6.99015e+02	2.02000e+03	0.0234611	700.0
2021	6.99009e+02	2.02100e+03	0.0234947	700.0
2022	6.99011e+02	2.02200e+03	0.0235242	700.0
2023	6.99020e+02	2.02300e+03	0.0235512	700.0
2024	6.99017e+02	2.02400e+03	0.023569	700.0
2025	6.99020e+02	2.02500e+03	0.0235798	700.0
2026	6.99027e+02	2.02600e+03	0.0235852	700.0
2027	6.99030e+02	2.02700e+03	0.0235881	700.0
2028	6.99021e+02	2.02800e+03	0.0235729	700.0
2029	6.99025e+02	2.02900e+03	0.0235711	700.0
2030	6.99021e+02	2.03000e+03	0.0235745	700.0
2031	6.99022e+02	2.03100e+03	0.0235799	700.0
2032	6.99027e+02	2.03200e+03	0.0235929	700.0
2033	6.99029e+02	2.03300e+03	0.0235992	700.0
2034	6.99033e+02	2.03400e+03	0.0235988	700.0
2035	6.99026e+02	2.03500e+03	0.0235937	700.0
2036	6.99027e+02	2.03600e+03	0.0235795	700.0
2037	6.99023e+02	2.03700e+03	0.0235643	700.0
2038	6.99030e+02	2.03800e+03	0.0235468	700.0
2039	6.99037e+02	2.03900e+03	0.023528	700.0
2040	6.99024e+02	2.04000e+03	0.0234967	700.0
2041	6.99040e+02	2.04100e+03	0.0234741	700.0
2042	6.99036e+02	2.04200e+03	0.0234548	700.0
2043	6.99042e+02	2.04300e+03	0.0234369	700.0
2044	6.99038e+02	2.04400e+03	0.0234278	700.0
2045	6.99031e+02	2.04500e+03	0.0234173	700.0
2046	6.99034e+02	2.04600e+03	0.0234073	700.0
2047	6.99038e+02	2.04700e+03	0.0233984	700.0
2048	6.99040e+02	2.04800e+03	0.0233992	700.0
2049	6.99042e+02	2.04900e+03	0.0233976	700.0
2050	6.99041e+02	2.05000e+03	0.0233947	700.0
2051	6.99052e+02	2.05100e+03	0.0233912	700.0
2052	6.99045e+02	2.05200e+03	0.0233962	700.0
2053	6.99049e+02	2.05300e+03	0.0234034	700.0
2054	6.99045e+02	2.05400e+03	0.0234146	700.0
2055	6.99036e+02	2.05500e+03	0.0234287	700.0
2056	6.99050e+02	2.05600e+03	0.0234507	700.0
2057	6.99048e+02	2.05700e+03	0.0234656	700.0
2058	6.99047e+02	2.05800e+03	0.0234739	700.0
2059	6.99048e+02	2.05900e+03	0.0234778	700.0
2060	6.99044e+02	2.06000e+03	0.0234749	700.0
2061	6.99050e+02	2.06100e+03	0.0234721	700.0
2062	6.99054e+02	2.06200e+03	0.0234682	700.0
2063	6.99048e+02	2.06300e+03	0.0234636	700.0
2064	6.99045e+02	2.06400e+03	0.0234506	700.0
2065	6.99041e+02	2.06500e+03	0.0234437	700.0
2066	6.99048e+02	2.06600e+03	0.0234385	700.0
2067	6.99048e+02	2.06700e+03	0.023434	700.0
2068	6.99041e+02	2.06800e+03	0.0234358	700.0
2069	6.99046e+02	2.06900e+03	0.0234402	700.0
2070	6.99053e+02	2.07000e+03	0.0234501	700.0
2071	6.99048e+02	2.07100e+03	0.0234638	700.0
2072	6.99042e+02	2.07200e+03	0.0234914	700.0
2073	6.99052e+02	2.07300e+03	0.0235143	700.0
2074	6.99054e+02	2.07400e+03	0.0235356	700.0
2075	6.99040e+02	2.07500e+03	0.0235559	700.0
2076	6.99057e+02	2.07600e+03	0.0235784	700.0
2077	6.99053e+02	2.07700e+03	0.0235918	700.0
2078	6.99053e+02	2.07800e+03	0.0235988	700.0
2079	6.99045e+02	2.07900e+03	0.0236016	700.0
2080	6.99059e+02	2.08000e+03	0.0235809	700.0
2081	6.99059e+02	2.08100e+03	0.0235647	700.0
2082	6.99056e+02	2.08200e+03	0.0235461	700.0
2083	6.99052e+02	2.08300e+03	0.0235252	700.0
2084	6.99056e+02	2.08400e+03	0.0234907	700.0
2085	6.99064e+02	2.08500e+03	0.0234641	700.0
2086	6.99046e+02	2.08600e+03	0.0234397	700.0
2087	6.99056e+02	2.08700e+03	0.0234162	700.0
2088	6.99044e+02	2.08800e+03	0.0233985	700.0
2089	6.99053e+02	2.08900e+03	0.0233819	700.0
2090	6.99051e+02	2.09000e+03	0.0233675	700.0
2091	6.99050e+02	2.09100e+03	0.0233546	700.0
2092	6.99047e+02	2.09200e+03	0.0233513	700.0
2093	6.99056e+02	2.09300e+03	0.023345	700.0
2094	6.99054e+02	2.09400e+03	0.0233386	700.0
2095	6.99052e+02	2.09500e+03	0.0233323	700.0
2096	6.99054e+02	2.09600e+03	0.0233281	700.0
2097	6.99056e+02	2.09700e+03	0.0233216	700.0
2098	6.99049e+02	2.09800e+03	0.0233141	700.0
2099	6.99046e+02	2.09900e+03	0.0233062	700.0
2100	6.99051e+02	2.10000e+03	0.0232954	700.0
2101	6.99049e+02	2.10100e+03	0.0232858	700.0
2102	6.99054e+02	2.10200e+03	0.0232767	700.0
2103	6.99046e+02	2.10300e+03	0.0232677	700.0
2104	6.99048e+02	2.10400e+03	0.0232598	700.0
2105	6.99041e+02	2.10500e+03	0.023253	700.0
2106	6.99048e+02	2.10600e+03	0.0232477	700.0
2107	6.99041e+02	2.10700e+03	0.0232435	700.0
2108	6.99044e+02	2.10800e+03	0.0232454	700.0
2109	6.99040e+02	2.10900e+03	0.023247	700.0
2110	6.99045e+02	2.11000e+03	0.0232499	700.0
2111	6.99042e+02	2.11100e+03	0.0232538	700.0
2112	6.99038e+02	2.11200e+03	0.0232629	700.0
2113	6.99044e+02	2.11300e+03	0.0232685	700.0
2114	6.99048e+02	2.11400e+03	0.0232721	700.0
2115	6.99044e+02	2.11500e+03	0.0232744	700.0
2116	6.99036e+02	2.11600e+03	0.0232702	700.0
2117	6.99036e+02	2.11700e+03	0.0232642	700.0
2118	6.99034e+02	2.11800e+03	0.0232562	700.0
2119	6.99027e+02	2.11900e+03	0.0232476	700.0
2120	6.99033e+02	2.12000e+03	0.0232345	700.0
2121	6.99036e+02	2.12100e+03	0.0232285	700.0
2122	6.99034e+02	2.12200e+03	0.0232272	700.0
2123	6.99039e+02	2.12300e+03	0.0232287	700.0
2124	6.99037e+02	2.12400e+03	0.0232382	700.0
2125	6.99040e+02	2.12500e+03	0.0232416	700.0
2126	6.99033e+02	2.12600e+03	0.0232421	700.0
2127	6.99040e+02	2.12700e+03	0.023241	700.0
2128	6.99040e+02	2.12800e+03	0.0232346	700.0
2129	6.99043e+02	2.12900e+03	0.0232294	700.0
2130	6.99031e+02	2.13000e+03	0.0232258	700.0
2131	6.99031e+02	2.13100e+03	0.0232226	700.0
2132	6.99038e+02	2.13200e+03	0.0232127	700.0
2133	6.99041e+02	2.13300e+03	0.0232045	700.0
2134	6.99038e+02	2.13400e+03	0.023196	700.0
2135	6.99038e+02	2.13500e+03	0.0231869	700.0
2136	6.99041e+02	2.13600e+03	0.0231779	700.0
2137	6.99026e+02	2.13700e+03	0.0231695	700.0
2138	6.99025e+02	2.13800e+03	0.0231618	700.0
2139	6.99030e+02	2.13900e+03	0.0231544	700.0
2140	6.99033e+02	2.14000e+03	0.0231492	700.0
2141	6.99026e+02	2.14100e+03	0.0231441	700.0
2142	6.99030e+02	2.14200e+03	0.0231392	700.0
2143	6.99033e+02	2.14300e+03	0.0231344	700.0
2144	6.99037e+02	2.14400e+03	0.0231306	700.0
2145	6.99030e+02	2.14500e+03	0.023125	700.0
2146	6.99025e+02	2.14600e+03	0.0231184	700.0
2147	6.99028e+02	2.14700e+03	0.0231114	700.0
2148	6.99025e+02	2.14800e+03	0.0231019	700.0
2149	6.99020e+02	2.14900e+03	0.0230944	700.0
2150	6.99019e+02	2.15000e+03	0.0230882	700.0
2151	6.99024e+02	2.15100e+03	0.0230828	700.0
2152	6.99016e+02	2.15200e+03	0.023082	700.0
2153	6.99013e+02	2.15300e+03	0.0230823	700.0
2154	6.99019e+02	2.15400e+03	0.0230842	700.0
2155	6.99018e+02	2.15500e+03	0.0230871	700.0
2156	6.99026e+02	2.15600e+03	0.0230978	700.0
2157	6.99016e+02	2.15700e+03	0.0231063	700.0
2158	6.99015e+02	2.15800e+03	0.023116	700.0
2159	6.99015e+02	2.15900e+03	0.0231271	700.0
2160	6.99011e+02	2.16000e+03	0.0231448	700.0
2161	6.99009e+02	2.16100e+03	0.0231651	700.0
2162	6.99017e+02	2.16200e+03	0.0231896	700.0
2163	6.99020e+02	2.16300e+03	0.023216	700.0
2164	6.99018e+02	2.16400e+03	0.0232482	700.0
2165	6.99019e+02	2.16500e+03	0.0232733	700.0
2166	6.99020e+02	2.16600e+03	0.0232941	700.0
2167	6.99012e+02	2.16700e+03	0.0233112	700.0
2168	6.99004e+02	2.16800e+03	0.0233096	700.0
2169	6.99011e+02	2.16900e+03	0.0233066	700.0
2170	6.99008e+02	2.17000e+03	0.0233023	700.0
2171	6.99008e+02	2.17100e+03	0.0232985	700.0
2172	6.99009e+02	2.17200e+03	0.0232795	700.0
2173	6.99017e+02	2.17300e+03	0.023271	700.0
2174	6.99010e+02	2.17400e+03	0.0232644	700.0
2175	6.99012e+02	2.17500e+03	0.0232579	700.0
2176	6.99001e+02	2.17600e+03	0.0232577	700.0
2177	6.98997e+02	2.17700e+03	0.02325	700.0
2178	6.99005e+02	2.17800e+03	0.0232378	700.0
2179	6.98999e+02	2.17900e+03	0.0232227	700.0
2180	6.99002e+02	2.18000e+03	0.023193	700.0
2181	6.99001e+02	2.18100e+03	0.0231676	700.0
2182	6.99004e+02	2.18200e+03	0.0231447	700.0
2183	6.99002e+02	2.18300e+03	0.0231228	700.0
2184	6.99003e+02	2.18400e+03	0.0230961	700.0
2185	6.99010e+02	2.18500e+03	0.0230764	700.0
2186	6.99005e+02	2.18600e+03	0.0230629	700.0
2187	6.98999e+02	2.18700e+03	0.0230541	700.0
2188	6.99010e+02	2.18800e+03	0.0230639	700.0
2189	6.99008e+02	2.18900e+03	0.0230701	700.0
2190	6.99001e+02	2.19000e+03	0.0230779	700.0
2191	6.98998e+02	2.19100e+03	0.0230874	700.0
2192	6.99000e+02	2.19200e+03	0.0231102	700.0
2193	6.99004e+02	2.19300e+03	0.023126	700.0
2194	6.98998e+02	2.19400e+03	0.0231401	700.0
2195	6.99000e+02	2.19500e+03	0.0231539	700.0
2196	6.98993e+02	2.19600e+03	0.0231633	700.0
2197	6.98993e+02	2.19700e+03	0.0231717	700.0
2198	6.98999e+02	2.19800e+03	0.023178	700.0
2199	6.98992e+02	2.19900e+03	0.0231828	700.0
2200	6.98993e+02	2.20000e+03	0.0231785	700.0
2201	6.99007e+02	2.20100e+03	0.0231757	700.0
2202	6.99007e+02	2.20200e+03	0.0231722	700.0
2203	6.98996e+02	2.20300e+03	0.0231679	700.0
2204	6.98994e+02	2.20400e+03	0.0231633	700.0
2205	6.98987e+02	2.20500e+03	0.0231659	700.0
2206	6.98998e+02	2.20600e+03	0.0231719	700.0
2207	6.98995e+02	2.20700e+03	0.0231792	700.0
2208	6.98995e+02	2.20800e+03	0.0231974	700.0
2209	6.98993e+02	2.20900e+03	0.0232107	700.0
2210	6.98989e+02	2.21000e+03	0.0232232	700.0
2211	6.98999e+02	2.21100e+03	0.0232355	700.0
2212	6.98997e+02	2.21200e+03	0.0232463	700.0
2213	6.98989e+02	2.21300e+03	0.0232542	700.0
2214	6.98995e+02	2.21400e+03	0.0232591	700.0
2215	6.98991e+02	2.21500e+03	0.0232619	700.0
2216	6.98991e+02	2.21600e+03	0.0232526	700.0
2217	6.98989e+02	2.21700e+03	0.0232444	700.0
2218	6.98989e+02	2.21800e+03	0.0232345	700.0
2219	6.98984e+02	2.21900e+03	0.0232233	700.0
2220	6.98996e+02	2.22000e+03	0.0232036	700.0
2221	6.98977e+02	2.22100e+03	0.0231896	700.0
2222	6.98983e+02	2.22200e+03	0.0231773	700.0
2223	6.98988e+02	2.22300e+03	0.0231656	700.0
2224	6.98994e+02	2.22400e+03	0.0231586	700.0
2225	6.98989e+02	2.22500e+03	0.0231513	700.0
2226	6.98987e+02	2.22600e+03	0.0231449	700.0
2227	6.98986e+02	2.22700e+03	0.0231393	700.0
2228	6.98985e+02	2.22800e+03	0.0231375	700.0
2229	6.98981e+02	2.22900e+03	0.0231332	700.0
2230	6.98973e+02	2.23000e+03	0.0231277	700.0
2231	6.98980e+02	2.23100e+03	0.0231213	700.0
2232	6.98979e+02	2.23200e+03	0.0231107	700.0
2233	6.98979e+02	2.23300e+03	0.0230985	700.0
2234	6.98990e+02	2.23400e+03	0.0230843	700.0
2235	6.98979e+02	2.23500e+03	0.0230685	700.0
2236	6.98984e+02	2.23600e+03	0.0230429	700.0
2237	6.98982e+02	2.23700e+03	0.0230203	700.0
2238	6.98979e+02	2.23800e+03	0.0230001	700.0
2239	6.98977e+02	2.23900e+03	0.022982	700.0
2240	6.98972e+02	2.24000e+03	0.0229631	700.0
2241	6.98983e+02	2.24100e+03	0.0229459	700.0
2242	6.98970e+02	2.24200e+03	0.0229292	700.0
2243	6.98970e+02	2.24300e+03	0.0229129	700.0
2244	6.98972e+02	2.24400e+03	0.022903	700.0
2245	6.98967e+02	2.24500e+03	0.0228909	700.0
2246	6.98974e+02	2.24600e+03	0.0228792	700.0
2247	6.98975e+02	2.24700e+03	0.0228682	700.0
2248	6.98978e+02	2.24800e+03	0.0228603	700.0
2249	6.98977e+02	2.24900e+03	0.0228509	700.0
2250	6.98971e+02	2.25000e+03	0.0228393	700.0
2251	6.98972e+02	2.25100e+03	0.0228268	700.0
2252	6.98973e+02	2.25200e+03	0.0228182	700.0
2253	6.98972e+02	2.25300e+03	0.0228101	700.0
2254	6.98955e+02	2.25400e+03	0.0228031	700.0
2255	6.98962e+02	2.25500e+03	0.0227968	700.0
2256	6.98960e+02	2.25600e+03	0.0227929	700.0
2257	6.98951e+02	2.25700e+03	0.0227879	700.0
2258	6.98955e+02	2.25800e+03	0.0227827	700.0
2259	6.98962e+02	2.25900e+03	0.0227775	700.0
2260	6.98963e+02	2.26000e+03	0.0227723	700.0
2261	6.98953e+02	2.26100e+03	0.0227671	700.0
2262	6.98957e+02	2.26200e+03	0.0227642	700.0
2263	6.98958e+02	2.26300e+03	0.0227644	700.0
2264	6.98963e+02	2.26400e+03	0.0227758	700.0
2265	6.98963e+02	2.26500e+03	0.022791	700.0
2266	6.98949e+02	2.26600e+03	0.0228085	700.0
2267	6.98954e+02	2.26700e+03	0.0228266	700.0
2268	6.98942e+02	2.26800e+03	0.0228584	700.0
2269	6.98948e+02	2.26900e+03	0.0228788	700.0
2270	6.98955e+02	2.27000e+03	0.0228959	700.0
2271	6.98955e+02	2.27100e+03	0.0229128	700.0
2272	6.98952e+02	2.27200e+03	0.0229252	700.0
2273	6.98952e+02	2.27300e+03	0.0229421	700.0
2274	6.98962e+02	2.27400e+03	0.0229584	700.0
2275	6.98944e+02	2.27500e+03	0.0229738	700.0
2276	6.98947e+02	2.27600e+03	0.0229897	700.0
2277	6.98946e+02	2.27700e+03	0.0230004	700.0
2278	6.98941e+02	2.27800e+03	0.0230076	700.0
2279	6.98944e+02	2.27900e+03	0.0230127	700.0
2280	6.98938e+02	2.28000e+03	0.0230048	700.0
2281	6.98945e+02	2.28100e+03	0.0230002	700.0
2282	6.98949e+02	2.28200e+03	0.0229948	700.0
2283	6.98940e+02	2.28300e+03	0.0229884	700.0
2284	6.98939e+02	2.28400e+03	0.0229768	700.0
2285	6.98945e+02	2.28500e+03	0.022971	700.0
2286	6.98951e+02	2.28600e+03	0.0229709	700.0
2287	6.98948e+02	2.28700e+03	0.0229747	700.0
2288	6.98938e+02	2.28800e+03	0.0229905	700.0
2289	6.98938e+02	2.28900e+03	0.0230048	700.0
2290	6.98946e+02	2.29000e+03	0.0230181	700.0
2291	6.98940e+02	2.29100e+03	0.0230306	700.0
2292	6.98931e+02	2.29200e+03	0.0230482	700.0
2293	6.98947e+02	2.29300e+03	0.023057	700.0
2294	6.98944e+02	2.29400e+03	0.0230618	700.0
2295	6.98939e+02	2.29500e+03	0.0230647	700.0
2296	6.98947e+02	2.29600e+03	0.0230542	700.0
2297	6.98949e+02	2.29700e+03	0.0230501	700.0
2298	6.98929e+02	2.29800e+03	0.0230468	700.0
2299	6.98938e+02	2.29900e+03	0.0230434	700.0
2300	6.98934e+02	2.30000e+03	0.0230402	700.0
2301	6.98939e+02	2.30100e+03	0.0230375	700.0
2302	6.98935e+02	2.30200e+03	0.0230353	700.0
2303	6.98943e+02	2.30300e+03	0.0230333	700.0
2304	6.98935e+02	2.30400e+03	0.023033	700.0
2305	6.98939e+02	2.30500e+03	0.0230321	700.0
2306	6.98937e+02	2.30600e+03	0.0230315	700.0
2307	6.98940e+02	2.30700e+03	0.023031	700.0
2308	6.98935e+02	2.30800e+03	0.0230326	700.0
2309	6.98936e+02	2.30900e+03	0.0230355	700.0
2310	6.98934e+02	2.31000e+03	0.0230425	700.0
2311	6.98923e+02	2.31100e+03	0.023053	700.0
2312	6.98923e+02	2.31200e+03	0.0230708	700.0
2313	6.98920e+02	2.31300e+03	0.023085	700.0
2314	6.98926e+02	2.31400e+03	0.0230969	700.0
2315	6.98930e+02	2.31500e+03	0.0231073	700.0
2316	6.98927e+02	2.31600e+03	0.0231143	700.0
2317	6.98924e+02	2.31700e+03	0.023114	700.0
2318	6.98930e+02	2.31800e+03	0.0231053	700.0
2319	6.98929e+02	2.31900e+03	0.023091	700.0
2320	6.98924e+02	2.32000e+03	0.0230573	700.0
2321	6.98924e+02	2.32100e+03	0.0230349	700.0
2322	6.98919e+02	2.32200e+03	0.0230178	700.0
2323	6.98927e+02	2.32300e+03	0.0230028	700.0
2324	6.98925e+02	2.32400e+03	0.0229885	700.0
2325	6.98918e+02	2.32500e+03	0.0229766	700.0
2326	6.98920e+02	2.32600e+03	0.0229663	700.0
2327	6.98925e+02	2.32700e+03	0.0229567	700.0
2328	6.98918e+02	2.32800e+03	0.022956	700.0
2329	6.98925e+02	2.32900e+03	0.0229516	700.0
2330	6.98922e+02	2.33000e+03	0.0229471	700.0
2331	6.98930e+02	2.33100e+03	0.0229429	700.0
2332	6.98928e+02	2.33200e+03	0.0229403	700.0
2333	6.98922e+02	2.33300e+03	0.0229375	700.0
2334	6.98913e+02	2.33400e+03	0.0229347	700.0
2335	6.98917e+02	2.33500e+03	0.0229317	700.0
2336	6.98924e+02	2.33600e+03	0.0229284	700.0
2337	6.98922e+02	2.33700e+03	0.0229237	700.0
2338	6.98920e+02	2.33800e+03	0.022918	700.0
2339	6.98915e+02	2.33900e+03	0.0229116	700.0
2340	6.98919e+02	2.34000e+03	0.0229011	700.0
2341	6.98919e+02	2.34100e+03	0.0228914	700.0
2342	6.98905e+02	2.34200e+03	0.0228797	700.0
2343	6.98913e+02	2.34300e+03	0.0228652	700.0
2344	6.98915e+02	2.34400e+03	0.0228456	700.0
2345	6.98915e+02	2.34500e+03	0.0228295	700.0
2346	6.98912e+02	2.34600e+03	0.0228171	700.0
2347	6.98908e+02	2.34700e+03	0.0228089	700.0
2348	6.98911e+02	2.34800e+03	0.0228162	700.0
2349	6.98901e+02	2.34900e+03	0.022832	700.0
2350	6.98909e+02	2.35000e+03	0.0228567	700.0
2351	6.98904e+02	2.35100e+03	0.0228869	700.0
2352	6.98911e+02	2.35200e+03	0.0229445	700.0
2353	6.98900e+02	2.35300e+03	0.0229823	700.0
2354	6.98905e+02	2.35400e+03	0.0230122	700.0
2355	6.98904e+02	2.35500e+03	0.0230383	700.0
2356	6.98893e+02	2.35600e+03	0.0230456	700.0
2357	6.98902e+02	2.35700e+03	0.023052	700.0
2358	6.98896e+02	2.35800e+03	0.0230535	700.0
2359	6.98899e+02	2.35900e+03	0.0230516	700.0
2360	6.98902e+02	2.36000e+03	0.0230273	700.0
2361	6.98899e+02	2.36100e+03	0.0230127	700.0
2362	6.98900e+02	2.36200e+03	0.0229986	700.0
2363	6.98906e+02	2.36300e+03	0.0229837	700.0
2364	6.98900e+02	2.36400e+03	0.0229663	700.0
2365	6.98898e+02	2.36500e+03	0.0229505	700.0
2366	6.98890e+02	2.36600e+03	0.0229355	700.0
2367	6.98906e+02	2.36700e+03	0.022921	700.0
2368	6.98906e+02	2.36800e+03	0.0229105	700.0
2369	6.98894e+02	2.36900e+03	0.022902	700.0
2370	6.98900e+02	2.37000e+03	0.0228966	700.0
2371	6.98904e+02	2.37100e+03	0.0228934	700.0
2372	6.98903e+02	2.37200e+03	0.0229028	700.0
2373	6.98895e+02	2.37300e+03	0.0229109	700.0
2374	6.98888e+02	2.37400e+03	0.0229207	700.0
2375	6.98899e+02	2.37500e+03	0.0229319	700.0
2376	6.98900e+02	2.37600e+03	0.0229493	700.0
2377	6.98900e+02	2.37700e+03	0.022955	700.0
2378	6.98894e+02	2.37800e+03	0.0229537	700.0
2379	6.98903e+02	2.37900e+03	0.0229502	700.0
2380	6.98900e+02	2.38000e+03	0.0229365	700.0
2381	6.98898e+02	2.38100e+03	0.0229307	700.0
2382	6.98887e+02	2.38200e+03	0.0229274	700.0
2383	6.98894e+02	2.38300e+03	0.022924	700.0
2384	6.98893e+02	2.38400e+03	0.0229186	700.0
2385	6.98891e+02	2.38500e+03	0.0229116	700.0
2386	6.98891e+02	2.38600e+03	0.0229033	700.0
2387	6.98904e+02	2.38700e+03	0.022894	700.0
2388	6.98891e+02	2.38800e+03	0.0228823	700.0
2389	6.98883e+02	2.38900e+03	0.0228727	700.0
2390	6.98888e+02	2.39000e+03	0.0228641	700.0
2391	6.98885e+02	2.39100e+03	0.0228558	700.0
2392	6.98889e+02	2.39200e+03	0.0228504	700.0
2393	6.98889e+02	2.39300e+03	0.022845	700.0
2394	6.98886e+02	2.39400e+03	0.0228404	700.0
2395	6.98885e+02	2.39500e+03	0.0228363	700.0
2396	6.98898e+02	2.39600e+03	0.0228354	700.0
2397	6.98886e+02	2.39700e+03	0.0228326	700.0
2398	6.98884e+02	2.39800e+03	0.022829	700.0
2399	6.98884e+02	2.39900e+03	0.0228249	700.0
2400	6.98878e+02	2.40000e+03	0.0228186	700.0
2401	6.98881e+02	2.40100e+03	0.0228112	700.0
2402	6.98890e+02	2.40200e+03	0.0228023	700.0
2403	6.98888e+02	2.40300e+03	0.0227922	700.0
2404	6.98881e+02	2.40400e+03	0.0227758	700.0
2405	6.98877e+02	2.40500e+03	0.0227619	700.0
2406	6.98882e+02	2.40600e+03	0.0227513	700.0
2407	6.98883e+02	2.40700e+03	0.0227428	700.0
2408	6.98870e+02	2.40800e+03	0.022734	700.0
2409	6.98881e+02	2.40900e+03	0.0227267	700.0
2410	6.98876e+02	2.41000e+03	0.0227211	700.0
2411	6.98882e+02	2.41100e+03	0.0227166	700.0
2412	6.98874e+02	2.41200e+03	0.0227227	700.0
2413	6.98882e+02	2.41300e+03	0.02273	700.0
2414	6.98888e+02	2.41400e+03	0.022744	700.0
2415	6.98882e+02	2.41500e+03	0.0227637	700.0
2416	6.98883e+02	2.41600e+03	0.0228029	700.0
2417	6.98869e+02	2.41700e+03	0.0228377	700.0
2418	6.98873e+02	2.41800e+03	0.022873	700.0
2419	6.98879e+02	2.41900e+03	0.0229089	700.0
2420	6.98879e+02	2.42000e+03	0.0229487	700.0
2421	6.98877e+02	2.42100e+03	0.0229742	700.0
2422	6.98872e+02	2.42200e+03	0.0229915	700.0
2423	6.98882e+02	2.42300e+03	0.0230048	700.0
2424	6.98877e+02	2.42400e+03	0.0229906	700.0
2425	6.98877e+02	2.42500e+03	0.0229836	700.0
2426	6.98879e+02	2.42600e+03	0.022975	700.0
2427	6.98879e+02	2.42700e+03	0.0229645	700.0
2428	6.98874e+02	2.42800e+03	0.022942	700.0
2429	6.98876e+02	2.42900e+03	0.0229271	700.0
2430	6.98875e+02	2.43000e+03	0.022915	700.0
2431	6.98876e+02	2.43100e+03	0.0229044	700.0
2432	6.98877e+02	2.43200e+03	0.0229097	700.0
2433	6.98868e+02	2.43300e+03	0.0229193	700.0
2434	6.98870e+02	2.43400e+03	0.0229319	700.0
2435	6.98878e+02	2.43500e+03	0.0229454	700.0
2436	6.98868e+02	2.43600e+03	0.0229681	700.0
2437	6.98865e+02	2.43700e+03	0.0229738	700.0
2438	6.98868e+02	2.43800e+03	0.0229713	700.0
2439	6.98866e+02	2.43900e+03	0.0229643	700.0
2440	6.98868e+02	2.44000e+03	0.0229297	700.0
2441	6.98872e+02	2.44100e+03	0.0229066	700.0
2442	6.98863e+02	2.44200e+03	0.0228855	700.0
2443	6.98865e+02	2.44300e+03	0.0228641	700.0
2444	6.98872e+02	2.44400e+03	0.0228423	700.0
2445	6.98870e+02	2.44500e+03	0.0228291	700.0
2446	6.98872e+02	2.44600e+03	0.0228219	700.0
2447	6.98870e+02	2.44700e+03	0.0228183	700.0
2448	6.98864e+02	2.44800e+03	0.0228455	700.0
2449	6.98872e+02	2.44900e+03	0.0228711	700.0
2450	6.98875e+02	2.45000e+03	0.0228997	700.0
2451	6.98869e+02	2.45100e+03	0.0229303	700.0
2452	6.98869e+02	2.45200e+03	0.0229793	700.0
2453	6.98870e+02	2.45300e+03	0.0230133	700.0
2454	6.98877e+02	2.45400e+03	0.0230415	700.0
2455	6.98858e+02	2.45500e+03	0.0230669	700.0
2456	6.98868e+02	2.45600e+03	0.0230748	700.0
2457	6.98865e+02	2.45700e+03	0.0230854	700.0
2458	6.98862e+02	2.45800e+03	0.0230939	700.0
2459	6.98863e+02	2.45900e+03	0.0231006	700.0
2460	6.98861e+02	2.46000e+03	0.0230885	700.0
2461	6.98870e+02	2.46100e+03	0.0230787	700.0
2462	6.98872e+02	2.46200e+03	0.0230683	700.0
2463	6.98870e+02	2.46300e+03	0.0230572	700.0
2464	6.98874e+02	2.46400e+03	0.0230366	700.0
2465	6.98872e+02	2.46500e+03	0.0230212	700.0
2466	6.98870e+02	2.46600e+03	0.0230066	700.0
2467	6.98857e+02	2.46700e+03	0.0229917	700.0
2468	6.98860e+02	2.46800e+03	0.0229764	700.0
2469	6.98854e+02	2.46900e+03	0.0229593	700.0
2470	6.98862e+02	2.47000e+03	0.0229419	700.0
2471	6.98866e+02	2.47100e+03	0.0229243	700.0
2472	6.98868e+02	2.47200e+03	0.0229091	700.0
2473	6.98862e+02	2.47300e+03	0.022901	700.0
2474	6.98867e+02	2.47400e+03	0.0228974	700.0
2475	6.98871e+02	2.47500e+03	0.0228955	700.0
2476	6.98868e+02	2.47600e+03	0.0229063	700.0
2477	6.98855e+02	2.47700e+03	0.0229112	700.0
2478	6.98868e+02	2.47800e+03	0.0229149	700.0
2479	6.98865e+02	2.47900e+03	0.0229186	700.0
2480	6.98868e+02	2.48000e+03	0.0229226	700.0
2481	6.98866e+02	2.48100e+03	0.0229255	700.0
2482	6.98862e+02	2.48200e+03	0.0229277	700.0
2483	6.98868e+02	2.48300e+03	0.0229295	700.0
2484	6.98860e+02	2.48400e+03	0.022929	700.0
2485	6.98857e+02	2.48500e+03	0.0229299	700.0
2486	6.98856e+02	2.48600e+03	0.0229314	700.0
2487	6.98867e+02	2.48700e+03	0.0229335	700.0
2488	6.98861e+02	2.48800e+03	0.0229376	700.0
2489	6.98864e+02	2.48900e+03	0.0229434	700.0
2490	6.98869e+02	2.49000e+03	0.0229532	700.0
2491	6.98870e+02	2.49100e+03	0.0229665	700.0
2492	6.98876e+02	2.49200e+03	0.0229858	700.0
2493	6.98867e+02	2.49300e+03	0.0230013	700.0
2494	6.98867e+02	2.49400e+03	0.0230147	700.0
2495	6.98867e+02	2.49500e+03	0.0230268	700.0
2496	6.98868e+02	2.49600e+03	0.0230343	700.0
2497	6.98865e+02	2.49700e+03	0.0230371	700.0
2498	6.98860e+02	2.49800e+03	0.0230365	700.0
2499	6.98858e+02	2.49900e+03	0.0230352	700.0
2500	6.98850e+02	2.50000e+03	0.0230237	700.0
2501	6.98857e+02	2.50100e+03	0.0230174	700.0
2502	6.98858e+02	2.50200e+03	0.0230105	700.0
2503	6.98865e+02	2.50300e+03	0.0230024	700.0
2504	6.98857e+02	2.50400e+03	0.0229872	700.0
2505	6.98850e+02	2.50500e+03	0.0229654	700.0
2506	6.98856e+02	2.50600e+03	0.0229396	700.0
2507	6.98853e+02	2.50700e+03	0.0229119	700.0
2508	6.98853e+02	2.50800e+03	0.0228678	700.0
2509	6.98851e+02	2.50900e+03	0.0228333	700.0
2510	6.98852e+02	2.51000e+03	0.0228027	700.0
2511	6.98852e+02	2.51100e+03	0.022774	700.0
2512	6.98854e+02	2.51200e+03	0.0227564	700.0
2513	6.98860e+02	2.51300e+03	0.0227426	700.0
2514	6.98863e+02	2.51400e+03	0.0227356	700.0
2515	6.98857e+02	2.51500e+03	0.0227349	700.0
2516	6.98859e+02	2.51600e+03	0.0227661	700.0
2517	6.98844e+02	2.51700e+03	0.0227921	700.0
2518	6.98849e+02	2.51800e+03	0.0228206	700.0
2519	6.98839e+02	2.51900e+03	0.0228514	700.0
2520	6.98846e+02	2.52000e+03	0.0229017	700.0
2521	6.98847e+02	2.52100e+03	0.022938	700.0
2522	6.98856e+02	2.52200e+03	0.0229687	700.0
2523	6.98848e+02	2.52300e+03	0.0229966	700.0
2524	6.98844e+02	2.52400e+03	0.0230125	700.0
2525	6.98846e+02	2.52500e+03	0.023032	700.0
2526	6.98851e+02	2.52600e+03	0.0230496	700.0
2527	6.98842e+02	2.52700e+03	0.0230644	700.0
2528	6.98848e+02	2.52800e+03	0.0230657	700.0
2529	6.98853e+02	2.52900e+03	0.0230676	700.0
2530	6.98840e+02	2.53000e+03	0.0230663	700.0
2531	6.98847e+02	2.53100e+03	0.0230623	700.0
2532	6.98854e+02	2.53200e+03	0.0230434	700.0
2533	6.98854e+02	2.53300e+03	0.0230282	700.0
2534	6.98845e+02	2.53400e+03	0.0230106	700.0
2535	6.98843e+02	2.53500e+03	0.0229893	700.0
2536	6.98844e+02	2.53600e+03	0.0229494	700.0
2537	6.98836e+02	2.53700e+03	0.0229094	700.0
2538	6.98834e+02	2.53800e+03	0.0228681	700.0
2539	6.98845e+02	2.53900e+03	0.0228268	700.0
2540	6.98848e+02	2.54000e+03	0.0227765	700.0
2541	6.98839e+02	2.54100e+03	0.0227391	700.0
2542	6.98846e+02	2.54200e+03	0.0227086	700.0
2543	6.98844e+02	2.54300e+03	0.0226819	700.0
2544	6.98848e+02	2.54400e+03	0.0226789	700.0
2545	6.98842e+02	2.54500e+03	0.0226718	700.0
2546	6.98841e+02	2.54600e+03	0.0226696	700.0
2547	6.98837e+02	2.54700e+03	0.0226732	700.0
2548	6.98833e+02	2.54800e+03	0.0227027	700.0
2549	6.98835e+02	2.54900e+03	0.0227289	700.0
2550	6.98846e+02	2.55000e+03	0.0227567	700.0
2551	6.98855e+02	2.55100e+03	0.0227847	700.0
2552	6.98844e+02	2.55200e+03	0.0228209	700.0
2553	6.98841e+02	2.55300e+03	0.0228433	700.0
2554	6.98842e+02	2.55400e+03	0.0228589	700.0
2555	6.98841e+02	2.55500e+03	0.0228711	700.0
2556	6.98846e+02	2.55600e+03	0.0228606	700.0
2557	6.98835e+02	2.55700e+03	0.0228583	700.0
2558	6.98842e+02	2.55800e+03	0.0228586	700.0
2559	6.98848e+02	2.55900e+03	0.0228606	700.0
2560	6.98839e+02	2.56000e+03	0.0228588	700.0
2561	6.98815e+02	2.56100e+03	0.0228593	700.0
2562	6.98840e+02	2.56200e+03	0.0228572	700.0
2563	6.98840e+02	2.56300e+03	0.0228521	700.0
2564	6.98827e+02	2.56400e+03	0.0228485	700.0
2565	6.98836e+02	2.56500e+03	0.0228437	700.0
2566	6.98834e+02	2.56600e+03	0.0228389	700.0
2567	6.98836e+02	2.56700e+03	0.0228339	700.0
2568	6.98830e+02	2.56800e+03	0.0228208	700.0
2569	6.98827e+02	2.56900e+03	0.0228101	700.0
2570	6.98835e+02	2.57000e+03	0.0228015	700.0
2571	6.98832e+02	2.57100e+03	0.0227942	700.0
2572	6.98823e+02	2.57200e+03	0.0227898	700.0
2573	6.98830e+02	2.57300e+03	0.02279	700.0
2574	6.98832e+02	2.57400e+03	0.0227969	700.0
2575	6.98835e+02	2.57500e+03	0.0228083	700.0
2576	6.98836e+02	2.57600e+03	0.022832	700.0
2577	6.98832e+02	2.57700e+03	0.0228493	700.0
2578	6.98829e+02	2.57800e+03	0.0228646	700.0
2579	6.98836e+02	2.57900e+03	0.0228791	700.0
2580	6.98831e+02	2.58000e+03	0.0228905	700.0
2581	6.98830e+02	2.58100e+03	0.0228971	700.0
2582	6.98837e+02	2.58200e+03	0.0228993	700.0
2583	6.98840e+02	2.58300e+03	0.0228987	700.0
2584	6.98833e+02	2.58400e+03	0.0228812	700.0
2585	6.98834e+02	2.58500e+03	0.022868	700.0
2586	6.98833e+02	2.58600e+03	0.0228544	700.0
2587	6.98840e+02	2.58700e+03	0.0228401	700.0
2588	6.98826e+02	2.58800e+03	0.0228213	700.0
2589	6.98831e+02	2.58900e+03	0.0228086	700.0
2590	6.98840e+02	2.59000e+03	0.022799	700.0
2591	6.98837e+02	2.59100e+03	0.022791	700.0
2592	6.98831e+02	2.59200e+03	0.0227938	700.0
2593	6.98831e+02	2.59300e+03	0.0227944	700.0
2594	6.98829e+02	2.59400e+03	0.0227957	700.0
2595	6.98830e+02	2.59500e+03	0.0227978	700.0
2596	6.98839e+02	2.59600e+03	0.0228039	700.0
2597	6.98838e+02	2.59700e+03	0.0228058	700.0
2598	6.98828e+02	2.59800e+03	0.0228079	700.0
2599	6.98828e+02	2.59900e+03	0.0228114	700.0
2600	6.98831e+02	2.60000e+03	0.0228115	700.0
2601	6.98824e+02	2.60100e+03	0.0228117	700.0
2602	6.98827e+02	2.60200e+03	0.0228111	700.0
2603	6.98829e+02	2.60300e+03	0.0228098	700.0
2604	6.98824e+02	2.60400e+03	0.0228086	700.0
2605	6.98835e+02	2.60500e+03	0.0228076	700.0
2606	6.98831e+02	2.60600e+03	0.022807	700.0
2607	6.98827e+02	2.60700e+03	0.0228065	700.0
2608	6.98824e+02	2.60800e+03	0.0228072	700.0
2609	6.98830e+02	2.60900e+03	0.0228086	700.0
2610	6.98831e+02	2.61000e+03	0.0228104	700.0
2611	6.98825e+02	2.61100e+03	0.0228126	700.0
2612	6.98829e+02	2.61200e+03	0.0228168	700.0
2613	6.98831e+02	2.61300e+03	0.0228195	700.0
2614	6.98835e+02	2.61400e+03	0.0228219	700.0
2615	6.98827e+02	2.61500e+03	0.0228241	700.0
2616	6.98823e+02	2.61600e+03	0.0228294	700.0
2617	6.98831e+02	2.61700e+03	0.0228387	700.0
2618	6.98832e+02	2.61800e+03	0.0228501	700.0
2619	6.98816e+02	2.61900e+03	0.022862	700.0
2620	6.98828e+02	2.62000e+03	0.0228789	700.0
2621	6.98831e+02	2.62100e+03	0.0228907	700.0
2622	6.98823e+02	2.62200e+03	0.0228998	700.0
2623	6.98818e+02	2.62300e+03	0.0229072	700.0
2624	6.98824e+02	2.62400e+03	0.0229065	700.0
2625	6.98824e+02	2.62500e+03	0.0229062	700.0
2626	6.98825e+02	2.62600e+03	0.0229047	700.0
2627	6.98825e+02	2.62700e+03	0.0229023	700.0
2628	6.98829e+02	2.62800e+03	0.0228945	700.0
2629	6.98827e+02	2.62900e+03	0.0228918	700.0
2630	6.98823e+02	2.63000e+03	0.0228919	700.0
2631	6.98831e+02	2.63100e+03	0.0228934	700.0
2632	6.98828e+02	2.63200e+03	0.0229026	700.0
2633	6.98817e+02	2.63300e+03	0.0229106	700.0
2634	6.98819e+02	2.63400e+03	0.0229188	700.0
2635	6.98819e+02	2.63500e+03	0.0229272	700.0
2636	6.98822e+02	2.63600e+03	0.0229378	700.0
2637	6.98818e+02	2.63700e+03	0.0229419	700.0
2638	6.98813e+02	2.63800e+03	0.0229405	700.0
2639	6.98821e+02	2.63900e+03	0.0229364	700.0
2640	6.98823e+02	2.64000e+03	0.0229223	700.0
2641	6.98819e+02	2.64100e+03	0.0229117	700.0
2642	6.98826e+02	2.64200e+03	0.0229007	700.0
2643	6.98814e+02	2.64300e+03	0.0228887	700.0
2644	6.98815e+02	2.64400e+03	0.0228688	700.0
2645	6.98814e+02	2.64500e+03	0.022849	700.0
2646	6.98805e+02	2.64600e+03	0.0228287	700.0
2647	6.98813e+02	2.64700e+03	0.0228095	700.0
2648	6.98830e+02	2.64800e+03	0.0227894	700.0
2649	6.98821e+02	2.64900e+03	0.0227716	700.0
2650	6.98815e+02	2.65000e+03	0.0227544	700.0
2651	6.98825e+02	2.65100e+03	0.0227375	700.0
2652	6.98822e+02	2.65200e+03	0.0227301	700.0
2653	6.98823e+02	2.65300e+03	0.0227216	700.0
2654	6.98817e+02	2.65400e+03	0.0227154	700.0
2655	6.98819e+02	2.65500e+03	0.0227113	700.0
2656	6.98816e+02	2.65600e+03	0.0227183	700.0
2657	6.98815e+02	2.65700e+03	0.022725	700.0
2658	6.98818e+02	2.65800e+03	0.0227337	700.0
2659	6.98816e+02	2.65900e+03	0.0227437	700.0
2660	6.98816e+02	2.66000e+03	0.0227627	700.0
2661	6.98815e+02	2.66100e+03	0.0227758	700.0
2662	6.98818e+02	2.66200e+03	0.0227871	700.0
2663	6.98815e+02	2.66300e+03	0.0227978	700.0
2664	6.98814e+02	2.66400e+03	0.0228024	700.0
2665	6.98818e+02	2.66500e+03	0.022806	700.0
2666	6.98810e+02	2.66600e+03	0.0228067	700.0
2667	6.98806e+02	2.66700e+03	0.0228053	700.0
2668	6.98814e+02	2.66800e+03	0.0227926	700.0
2669	6.98818e+02	2.66900e+03	0.0227822	700.0
2670	6.98815e+02	2.67000e+03	0.0227715	700.0
2671	6.98816e+02	2.67100e+03	0.0227607	700.0
2672	6.98810e+02	2.67200e+03	0.0227529	700.0
2673	6.98807e+02	2.67300e+03	0.0227543	700.0
2674	6.98819e+02	2.67400e+03	0.0227633	700.0
2675	6.98814e+02	2.67500e+03	0.0227771	700.0
2676	6.98806e+02	2.67600e+03	0.0228115	700.0
2677	6.98814e+02	2.67700e+03	0.0228371	700.0
2678	6.98815e+02	2.67800e+03	0.0228621	700.0
2679	6.98812e+02	2.67900e+03	0.0228878	700.0
2680	6.98808e+02	2.68000e+03	0.0229187	700.0
2681	6.98804e+02	2.68100e+03	0.0229461	700.0
2682	6.98813e+02	2.68200e+03	0.0229715	700.0
2683	6.98806e+02	2.68300e+03	0.0229958	700.0
2684	6.98808e+02	2.68400e+03	0.0230108	700.0
2685	6.98803e+02	2.68500e+03	0.0230201	700.0
2686	6.98804e+02	2.68600e+03	0.0230232	700.0
2687	6.98801e+02	2.68700e+03	0.0230235	700.0
2688	6.98806e+02	2.68800e+03	0.0230052	700.0
2689	6.98808e+02	2.68900e+03	0.0229935	700.0
2690	6.98806e+02	2.69000e+03	0.0229816	700.0
2691	6.98808e+02	2.69100e+03	0.0229688	700.0
2692	6.98802e+02	2.69200e+03	0.022957	700.0
2693	6.98809e+02	2.69300e+03	0.0229515	700.0
2694	6.98814e+02	2.69400e+03	0.0229477	700.0
2695	6.98815e+02	2.69500e+03	0.0229442	700.0
2696	6.98799e+02	2.69600e+03	0.0229503	700.0
2697	6.98801e+02	2.69700e+03	0.0229517	700.0
2698	6.98798e+02	2.69800e+03	0.022956	700.0
2699	6.98801e+02	2.69900e+03	0.0229633	700.0
2700	6.98802e+02	2.70000e+03	0.0229726	700.0
2701	6.98806e+02	2.70100e+03	0.0229822	700.0
2702	6.98806e+02	2.70200e+03	0.0229923	700.0
2703	6.98805e+02	2.70300e+03	0.0230027	700.0
2704	6.98795e+02	2.70400e+03	0.0230126	700.0
2705	6.98803e+02	2.70500e+03	0.0230156	700.0
2706	6.98806e+02	2.70600e+03	0.0230158	700.0
2707	6.98801e+02	2.70700e+03	0.0230146	700.0
2708	6.98797e+02	2.70800e+03	0.0230016	700.0
2709	6.98800e+02	2.70900e+03	0.0229935	700.0
2710	6.98803e+02	2.71000e+03	0.0229856	700.0
2711	6.98796e+02	2.71100e+03	0.0229769	700.0
2712	6.98800e+02	2.71200e+03	0.0229669	700.0
2713	6.98813e+02	2.71300e+03	0.0229562	700.0
2714	6.98798e+02	2.71400e+03	0.0229472	700.0
2715	6.98795e+02	2.71500e+03	0.0229388	700.0
2716	6.98802e+02	2.71600e+03	0.0229308	700.0
2717	6.98799e+02	2.71700e+03	0.0229235	700.0
2718	6.98802e+02	2.71800e+03	0.0229173	700.0
2719	6.98795e+02	2.71900e+03	0.0229122	700.0
2720	6.98802e+02	2.72000e+03	0.0229078	700.0
