Index	Ts	t	Weight	Tr
[#]	[°C]	[s]	[mg]	[°C]
683	1.30484e+02	6.83000e+02	3.04453	131.5
684	1.30996e+02	6.84000e+02	3.04448	132.0
685	1.31489e+02	6.85000e+02	3.04445	132.5
686	1.32002e+02	6.86000e+02	3.04442	133.0
687	1.32492e+02	6.87000e+02	3.04439	133.5
688	1.32993e+02	6.88000e+02	3.04439	134.0
689	1.33478e+02	6.89000e+02	3.04439	134.5
690	1.33990e+02	6.90000e+02	3.0444	135.0
691	1.34485e+02	6.91000e+02	3.04442	135.5
692	1.34984e+02	6.92000e+02	3.04445	136.0
693	1.35486e+02	6.93000e+02	3.04447	136.5
694	1.35986e+02	6.94000e+02	3.04449	137.0
695	1.36480e+02	6.95000e+02	3.0445	137.5
696	1.36979e+02	6.96000e+02	3.0445	138.0
697	1.37480e+02	6.97000e+02	3.0445	138.5
698	1.37982e+02	6.98000e+02	3.04449	139.0
699	1.38476e+02	6.99000e+02	3.04448	139.5
700	1.38984e+02	7.00000e+02	3.04445	140.0
701	1.39479e+02	7.01000e+02	3.04443	140.5
702	1.39980e+02	7.02000e+02	3.0444	141.0
703	1.40482e+02	7.03000e+02	3.04437	141.5
704	1.40979e+02	7.04000e+02	3.04433	142.0
705	1.41485e+02	7.05000e+02	3.04429	142.5
706	1.41989e+02	7.06000e+02	3.04426	143.0
707	1.42488e+02	7.07000e+02	3.04424	143.5
708	1.42992e+02	7.08000e+02	3.04422	144.0
709	1.43495e+02	7.09000e+02	3.0442	144.5
710	1.43994e+02	7.10000e+02	3.04419	145.0
711	1.44493e+02	7.11000e+02	3.04418	145.5
712	1.44985e+02	7.12000e+02	3.04419	146.0
713	1.45493e+02	7.13000e+02	3.04418	146.5
714	1.45986e+02	7.14000e+02	3.04417	147.0
715	1.46495e+02	7.15000e+02	3.04415	147.5
716	1.46991e+02	7.16000e+02	3.04413	148.0
717	1.47496e+02	7.17000e+02	3.04411	148.5
718	1.48004e+02	7.18000e+02	3.04408	149.0
719	1.48501e+02	7.19000e+02	3.04405	149.5
720	1.49002e+02	7.20000e+02	3.04401	150.0
721	1.49505e+02	7.21000e+02	3.04398	150.5
722	1.50021e+02	7.22000e+02	3.04396	151.0
723	1.50511e+02	7.23000e+02	3.04393	151.5
724	1.51009e+02	7.24000e+02	3.04391	152.0
725	1.51510e+02	7.25000e+02	3.0439	152.5
726	1.52012e+02	7.26000e+02	3.04388	153.0
727	1.52530e+02	7.27000e+02	3.04386	153.5
728	1.53034e+02	7.28000e+02	3.04384	154.0
729	1.53531e+02	7.29000e+02	3.04381	154.5
730	1.54038e+02	7.30000e+02	3.04377	155.0
731	1.54538e+02	7.31000e+02	3.04373	155.5
732	1.55035e+02	7.32000e+02	3.04366	156.0
733	1.55531e+02	7.33000e+02	3.04361	156.5
734	1.56035e+02	7.34000e+02	3.04356	157.0
735	1.56536e+02	7.35000e+02	3.0435	157.5
736	1.57032e+02	7.36000e+02	3.04345	158.0
737	1.57539e+02	7.37000e+02	3.0434	158.5
738	1.58052e+02	7.38000e+02	3.04335	159.0
739	1.58554e+02	7.39000e+02	3.04331	159.5
740	1.59042e+02	7.40000e+02	3.04328	160.0
741	1.59549e+02	7.41000e+02	3.04325	160.5
742	1.60060e+02	7.42000e+02	3.04323	161.0
743	1.60547e+02	7.43000e+02	3.0432	161.5
744	1.61056e+02	7.44000e+02	3.0432	162.0
745	1.61552e+02	7.45000e+02	3.04318	162.5
746	1.62061e+02	7.46000e+02	3.04316	163.0
747	1.62555e+02	7.47000e+02	3.04314	163.5
748	1.63054e+02	7.48000e+02	3.04311	164.0
749	1.63557e+02	7.49000e+02	3.04308	164.5
750	1.64073e+02	7.50000e+02	3.04306	165.0
751	1.64564e+02	7.51000e+02	3.04303	165.5
752	1.65077e+02	7.52000e+02	3.043	166.0
753	1.65581e+02	7.53000e+02	3.04297	166.5
754	1.66083e+02	7.54000e+02	3.04293	167.0
755	1.66594e+02	7.55000e+02	3.04288	167.5
756	1.67090e+02	7.56000e+02	3.04282	168.0
757	1.67595e+02	7.57000e+02	3.04275	168.5
758	1.68100e+02	7.58000e+02	3.04269	169.0
759	1.68605e+02	7.59000e+02	3.04262	169.5
760	1.69112e+02	7.60000e+02	3.04253	170.0
761	1.69611e+02	7.61000e+02	3.04244	170.5
762	1.70132e+02	7.62000e+02	3.04237	171.0
763	1.70637e+02	7.63000e+02	3.04229	171.5
764	1.71119e+02	7.64000e+02	3.04223	172.0
765	1.71625e+02	7.65000e+02	3.04217	172.5
766	1.72135e+02	7.66000e+02	3.04211	173.0
767	1.72649e+02	7.67000e+02	3.04206	173.5
768	1.73148e+02	7.68000e+02	3.04203	174.0
769	1.73662e+02	7.69000e+02	3.04199	174.5
770	1.74154e+02	7.70000e+02	3.04194	175.0
771	1.74663e+02	7.71000e+02	3.0419	175.5
772	1.75176e+02	7.72000e+02	3.04186	176.0
773	1.75676e+02	7.73000e+02	3.04182	176.5
774	1.76186e+02	7.74000e+02	3.04178	177.0
775	1.76695e+02	7.75000e+02	3.04174	177.5
776	1.77199e+02	7.76000e+02	3.0417	178.0
777	1.77697e+02	7.77000e+02	3.04164	178.5
778	1.78205e+02	7.78000e+02	3.04158	179.0
779	1.78707e+02	7.79000e+02	3.04152	179.5
780	1.79220e+02	7.80000e+02	3.04143	180.0
781	1.79719e+02	7.81000e+02	3.04134	180.5
782	1.80218e+02	7.82000e+02	3.04124	181.0
783	1.80737e+02	7.83000e+02	3.04114	181.5
784	1.81225e+02	7.84000e+02	3.04102	182.0
785	1.81737e+02	7.85000e+02	3.0409	182.5
786	1.82237e+02	7.86000e+02	3.04079	183.0
787	1.82738e+02	7.87000e+02	3.04067	183.5
788	1.83250e+02	7.88000e+02	3.04054	184.0
789	1.83755e+02	7.89000e+02	3.04041	184.5
790	1.84256e+02	7.90000e+02	3.04029	185.0
791	1.84764e+02	7.91000e+02	3.04016	185.5
792	1.85271e+02	7.92000e+02	3.04002	186.0
793	1.85782e+02	7.93000e+02	3.03988	186.5
794	1.86279e+02	7.94000e+02	3.03974	187.0
795	1.86789e+02	7.95000e+02	3.03959	187.5
796	1.87304e+02	7.96000e+02	3.03944	188.0
797	1.87799e+02	7.97000e+02	3.03929	188.5
798	1.88303e+02	7.98000e+02	3.03913	189.0
799	1.88813e+02	7.99000e+02	3.03898	189.5
800	1.89320e+02	8.00000e+02	3.03883	190.0
801	1.89818e+02	8.01000e+02	3.03867	190.5
802	1.90343e+02	8.02000e+02	3.03851	191.0
803	1.90848e+02	8.03000e+02	3.03835	191.5
804	1.91354e+02	8.04000e+02	3.03817	192.0
805	1.91848e+02	8.05000e+02	3.038	192.5
806	1.92363e+02	8.06000e+02	3.03782	193.0
807	1.92875e+02	8.07000e+02	3.03763	193.5
808	1.93374e+02	8.08000e+02	3.03742	194.0
809	1.93872e+02	8.09000e+02	3.03722	194.5
810	1.94389e+02	8.10000e+02	3.03701	195.0
811	1.94901e+02	8.11000e+02	3.0368	195.5
812	1.95402e+02	8.12000e+02	3.03656	196.0
813	1.95919e+02	8.13000e+02	3.03633	196.5
814	1.96420e+02	8.14000e+02	3.03609	197.0
815	1.96933e+02	8.15000e+02	3.03585	197.5
816	1.97433e+02	8.16000e+02	3.03558	198.0
817	1.97943e+02	8.17000e+02	3.03531	198.5
818	1.98457e+02	8.18000e+02	3.03504	199.0
819	1.98961e+02	8.19000e+02	3.03476	199.5
820	1.99460e+02	8.20000e+02	3.03445	200.0
821	1.99973e+02	8.21000e+02	3.03414	200.5
822	2.00487e+02	8.22000e+02	3.03382	201.0
823	2.00987e+02	8.23000e+02	3.0335	201.5
824	2.01507e+02	8.24000e+02	3.03315	202.0
825	2.02014e+02	8.25000e+02	3.03281	202.5
826	2.02520e+02	8.26000e+02	3.03246	203.0
827	2.03032e+02	8.27000e+02	3.03211	203.5
828	2.03538e+02	8.28000e+02	3.03174	204.0
829	2.04045e+02	8.29000e+02	3.03136	204.5
830	2.04557e+02	8.30000e+02	3.03098	205.0
831	2.05058e+02	8.31000e+02	3.0306	205.5
832	2.05564e+02	8.32000e+02	3.03021	206.0
833	2.06067e+02	8.33000e+02	3.02982	206.5
834	2.06573e+02	8.34000e+02	3.02945	207.0
835	2.07081e+02	8.35000e+02	3.02907	207.5
836	2.07579e+02	8.36000e+02	3.0287	208.0
837	2.08099e+02	8.37000e+02	3.02831	208.5
838	2.08599e+02	8.38000e+02	3.02793	209.0
839	2.09101e+02	8.39000e+02	3.02754	209.5
840	2.09608e+02	8.40000e+02	3.02714	210.0
841	2.10103e+02	8.41000e+02	3.02674	210.5
842	2.10607e+02	8.42000e+02	3.02634	211.0
843	2.11111e+02	8.43000e+02	3.02594	211.5
844	2.11614e+02	8.44000e+02	3.02552	212.0
845	2.12117e+02	8.45000e+02	3.02512	212.5
846	2.12620e+02	8.46000e+02	3.02471	213.0
847	2.13114e+02	8.47000e+02	3.02431	213.5
848	2.13622e+02	8.48000e+02	3.02392	214.0
849	2.14136e+02	8.49000e+02	3.02353	214.5
850	2.14637e+02	8.50000e+02	3.02315	215.0
851	2.15142e+02	8.51000e+02	3.02277	215.5
852	2.15644e+02	8.52000e+02	3.02241	216.0
853	2.16147e+02	8.53000e+02	3.02203	216.5
854	2.16655e+02	8.54000e+02	3.02164	217.0
855	2.17158e+02	8.55000e+02	3.02125	217.5
856	2.17658e+02	8.56000e+02	3.02083	218.0
857	2.18168e+02	8.57000e+02	3.02042	218.5
858	2.18673e+02	8.58000e+02	3.02	219.0
859	2.19177e+02	8.59000e+02	3.01959	219.5
860	2.19688e+02	8.60000e+02	3.01915	220.0
861	2.20200e+02	8.61000e+02	3.01872	220.5
862	2.20702e+02	8.62000e+02	3.01829	221.0
863	2.21194e+02	8.63000e+02	3.01787	221.5
864	2.21710e+02	8.64000e+02	3.01745	222.0
865	2.22214e+02	8.65000e+02	3.01702	222.5
866	2.22725e+02	8.66000e+02	3.0166	223.0
867	2.23225e+02	8.67000e+02	3.01618	223.5
868	2.23736e+02	8.68000e+02	3.01577	224.0
869	2.24237e+02	8.69000e+02	3.01535	224.5
870	2.24744e+02	8.70000e+02	3.01492	225.0
871	2.25248e+02	8.71000e+02	3.01449	225.5
872	2.25765e+02	8.72000e+02	3.01405	226.0
873	2.26255e+02	8.73000e+02	3.0136	226.5
874	2.26761e+02	8.74000e+02	3.01316	227.0
875	2.27253e+02	8.75000e+02	3.0127	227.5
876	2.27779e+02	8.76000e+02	3.01223	228.0
877	2.28285e+02	8.77000e+02	3.01177	228.5
878	2.28782e+02	8.78000e+02	3.01131	229.0
879	2.29299e+02	8.79000e+02	3.01084	229.5
880	2.29807e+02	8.80000e+02	3.01038	230.0
881	2.30306e+02	8.81000e+02	3.00993	230.5
882	2.30809e+02	8.82000e+02	3.00948	231.0
883	2.31308e+02	8.83000e+02	3.00903	231.5
884	2.31825e+02	8.84000e+02	3.00859	232.0
885	2.32333e+02	8.85000e+02	3.00814	232.5
886	2.32825e+02	8.86000e+02	3.00769	233.0
887	2.33339e+02	8.87000e+02	3.00723	233.5
888	2.33844e+02	8.88000e+02	3.00675	234.0
889	2.34343e+02	8.89000e+02	3.00628	234.5
890	2.34857e+02	8.90000e+02	3.0058	235.0
891	2.35356e+02	8.91000e+02	3.00531	235.5
892	2.35866e+02	8.92000e+02	3.00481	236.0
893	2.36383e+02	8.93000e+02	3.00432	236.5
894	2.36889e+02	8.94000e+02	3.00383	237.0
895	2.37387e+02	8.95000e+02	3.00333	237.5
896	2.37900e+02	8.96000e+02	3.00284	238.0
897	2.38410e+02	8.97000e+02	3.00234	238.5
898	2.38917e+02	8.98000e+02	3.00185	239.0
899	2.39429e+02	8.99000e+02	3.00135	239.5
900	2.39923e+02	9.00000e+02	3.00085	240.0
901	2.40421e+02	9.01000e+02	3.00036	240.5
902	2.40938e+02	9.02000e+02	2.99987	241.0
903	2.41443e+02	9.03000e+02	2.99938	241.5
904	2.41951e+02	9.04000e+02	2.99889	242.0
905	2.42457e+02	9.05000e+02	2.9984	242.5
906	2.42973e+02	9.06000e+02	2.9979	243.0
907	2.43469e+02	9.07000e+02	2.9974	243.5
908	2.43985e+02	9.08000e+02	2.9969	244.0
909	2.44487e+02	9.09000e+02	2.9964	244.5
910	2.44996e+02	9.10000e+02	2.99591	245.0
911	2.45501e+02	9.11000e+02	2.99541	245.5
912	2.46018e+02	9.12000e+02	2.99491	246.0
913	2.46525e+02	9.13000e+02	2.99441	246.5
914	2.47046e+02	9.14000e+02	2.99391	247.0
915	2.47545e+02	9.15000e+02	2.9934	247.5
916	2.48055e+02	9.16000e+02	2.9929	248.0
917	2.48566e+02	9.17000e+02	2.9924	248.5
918	2.49071e+02	9.18000e+02	2.99192	249.0
919	2.49584e+02	9.19000e+02	2.99143	249.5
920	2.50093e+02	9.20000e+02	2.99097	250.0
921	2.50605e+02	9.21000e+02	2.9905	250.5
922	2.51101e+02	9.22000e+02	2.99002	251.0
923	2.51613e+02	9.23000e+02	2.98954	251.5
924	2.52125e+02	9.24000e+02	2.98905	252.0
925	2.52648e+02	9.25000e+02	2.98856	252.5
926	2.53146e+02	9.26000e+02	2.98806	253.0
927	2.53663e+02	9.27000e+02	2.98756	253.5
928	2.54179e+02	9.28000e+02	2.98702	254.0
929	2.54680e+02	9.29000e+02	2.98649	254.5
930	2.55210e+02	9.30000e+02	2.98596	255.0
931	2.55709e+02	9.31000e+02	2.98542	255.5
932	2.56225e+02	9.32000e+02	2.98486	256.0
933	2.56733e+02	9.33000e+02	2.98431	256.5
934	2.57244e+02	9.34000e+02	2.98375	257.0
935	2.57762e+02	9.35000e+02	2.9832	257.5
936	2.58251e+02	9.36000e+02	2.98264	258.0
937	2.58779e+02	9.37000e+02	2.98208	258.5
938	2.59292e+02	9.38000e+02	2.9815	259.0
939	2.59813e+02	9.39000e+02	2.98092	259.5
940	2.60316e+02	9.40000e+02	2.98033	260.0
941	2.60836e+02	9.41000e+02	2.97974	260.5
942	2.61351e+02	9.42000e+02	2.97916	261.0
943	2.61866e+02	9.43000e+02	2.97857	261.5
944	2.62369e+02	9.44000e+02	2.978	262.0
945	2.62901e+02	9.45000e+02	2.97742	262.5
946	2.63407e+02	9.46000e+02	2.97685	263.0
947	2.63921e+02	9.47000e+02	2.97628	263.5
948	2.64429e+02	9.48000e+02	2.97574	264.0
949	2.64941e+02	9.49000e+02	2.97518	264.5
950	2.65463e+02	9.50000e+02	2.97464	265.0
951	2.65962e+02	9.51000e+02	2.9741	265.5
952	2.66471e+02	9.52000e+02	2.97358	266.0
953	2.66989e+02	9.53000e+02	2.97305	266.5
954	2.67514e+02	9.54000e+02	2.97253	267.0
955	2.68040e+02	9.55000e+02	2.97201	267.5
956	2.68562e+02	9.56000e+02	2.97149	268.0
957	2.69076e+02	9.57000e+02	2.97097	268.5
958	2.69598e+02	9.58000e+02	2.97043	269.0
959	2.70149e+02	9.59000e+02	2.9699	269.5
960	2.70695e+02	9.60000e+02	2.96935	270.0
961	2.71253e+02	9.61000e+02	2.9688	270.5
962	2.71833e+02	9.62000e+02	2.96825	271.0
963	2.72382e+02	9.63000e+02	2.96769	271.5
964	2.72871e+02	9.64000e+02	2.96711	272.0
965	2.73394e+02	9.65000e+02	2.96654	272.5
966	2.73925e+02	9.66000e+02	2.96596	273.0
967	2.74418e+02	9.67000e+02	2.96539	273.5
968	2.74906e+02	9.68000e+02	2.9648	274.0
969	2.75429e+02	9.69000e+02	2.96422	274.5
970	2.75963e+02	9.70000e+02	2.96365	275.0
971	2.76472e+02	9.71000e+02	2.96308	275.5
972	2.76988e+02	9.72000e+02	2.96253	276.0
973	2.77499e+02	9.73000e+02	2.96197	276.5
974	2.78012e+02	9.74000e+02	2.96141	277.0
975	2.78533e+02	9.75000e+02	2.96085	277.5
976	2.79059e+02	9.76000e+02	2.96029	278.0
977	2.79575e+02	9.77000e+02	2.95971	278.5
978	2.80095e+02	9.78000e+02	2.95913	279.0
979	2.80634e+02	9.79000e+02	2.95853	279.5
980	2.81144e+02	9.80000e+02	2.9579	280.0
981	2.81672e+02	9.81000e+02	2.95727	280.5
982	2.82206e+02	9.82000e+02	2.95664	281.0
983	2.82729e+02	9.83000e+02	2.95601	281.5
984	2.83251e+02	9.84000e+02	2.95536	282.0
985	2.83770e+02	9.85000e+02	2.95473	282.5
986	2.84310e+02	9.86000e+02	2.9541	283.0
987	2.84836e+02	9.87000e+02	2.95347	283.5
988	2.85337e+02	9.88000e+02	2.95283	284.0
989	2.85852e+02	9.89000e+02	2.95218	284.5
990	2.86352e+02	9.90000e+02	2.95151	285.0
991	2.86856e+02	9.91000e+02	2.95084	285.5
992	2.87375e+02	9.92000e+02	2.95012	286.0
993	2.87880e+02	9.93000e+02	2.94942	286.5
994	2.88400e+02	9.94000e+02	2.94873	287.0
995	2.88916e+02	9.95000e+02	2.94803	287.5
996	2.89412e+02	9.96000e+02	2.94732	288.0
997	2.89958e+02	9.97000e+02	2.94662	288.5
998	2.90498e+02	9.98000e+02	2.94592	289.0
999	2.91033e+02	9.99000e+02	2.94522	289.5
1000	2.91526e+02	1.00000e+03	2.94453	290.0
1001	2.92062e+02	1.00100e+03	2.94382	290.5
1002	2.92576e+02	1.00200e+03	2.94311	291.0
1003	2.93088e+02	1.00300e+03	2.9424	291.5
1004	2.93586e+02	1.00400e+03	2.94166	292.0
1005	2.94093e+02	1.00500e+03	2.94091	292.5
1006	2.94613e+02	1.00600e+03	2.94014	293.0
1007	2.95112e+02	1.00700e+03	2.93937	293.5
1008	2.95642e+02	1.00800e+03	2.93855	294.0
1009	2.96160e+02	1.00900e+03	2.93774	294.5
1010	2.96649e+02	1.01000e+03	2.93692	295.0
1011	2.97145e+02	1.01100e+03	2.9361	295.5
1012	2.97679e+02	1.01200e+03	2.93523	296.0
1013	2.98195e+02	1.01300e+03	2.93437	296.5
1014	2.98796e+02	1.01400e+03	2.93349	297.0
1015	2.99268e+02	1.01500e+03	2.9326	297.5
1016	2.99748e+02	1.01600e+03	2.93165	298.0
1017	3.00253e+02	1.01700e+03	2.93072	298.5
1018	3.00769e+02	1.01800e+03	2.92978	299.0
1019	3.01309e+02	1.01900e+03	2.92883	299.5
1020	3.01791e+02	1.02000e+03	2.92783	300.0
1021	3.02281e+02	1.02100e+03	2.92684	300.5
1022	3.02798e+02	1.02200e+03	2.92584	301.0
1023	3.03284e+02	1.02300e+03	2.92483	301.5
1024	3.03798e+02	1.02400e+03	2.92378	302.0
1025	3.04301e+02	1.02500e+03	2.92272	302.5
1026	3.04829e+02	1.02600e+03	2.92165	303.0
1027	3.05360e+02	1.02700e+03	2.92057	303.5
1028	3.05888e+02	1.02800e+03	2.91943	304.0
1029	3.06408e+02	1.02900e+03	2.91831	304.5
1030	3.06893e+02	1.03000e+03	2.91717	305.0
1031	3.07367e+02	1.03100e+03	2.91602	305.5
1032	3.07854e+02	1.03200e+03	2.91483	306.0
1033	3.08343e+02	1.03300e+03	2.91364	306.5
1034	3.08839e+02	1.03400e+03	2.91244	307.0
1035	3.09294e+02	1.03500e+03	2.91123	307.5
1036	3.09746e+02	1.03600e+03	2.90998	308.0
1037	3.10218e+02	1.03700e+03	2.90873	308.5
1038	3.10701e+02	1.03800e+03	2.90746	309.0
1039	3.11177e+02	1.03900e+03	2.90618	309.5
1040	3.11668e+02	1.04000e+03	2.90485	310.0
1041	3.12155e+02	1.04100e+03	2.90352	310.5
1042	3.12641e+02	1.04200e+03	2.90217	311.0
1043	3.13126e+02	1.04300e+03	2.90081	311.5
1044	3.13629e+02	1.04400e+03	2.89939	312.0
1045	3.14160e+02	1.04500e+03	2.89798	312.5
1046	3.14669e+02	1.04600e+03	2.89656	313.0
1047	3.15193e+02	1.04700e+03	2.89512	313.5
1048	3.15720e+02	1.04800e+03	2.89363	314.0
1049	3.16259e+02	1.04900e+03	2.89214	314.5
1050	3.16794e+02	1.05000e+03	2.89065	315.0
1051	3.17328e+02	1.05100e+03	2.88914	315.5
1052	3.17858e+02	1.05200e+03	2.8876	316.0
1053	3.18394e+02	1.05300e+03	2.88607	316.5
1054	3.18896e+02	1.05400e+03	2.88454	317.0
1055	3.19393e+02	1.05500e+03	2.88301	317.5
1056	3.19885e+02	1.05600e+03	2.88147	318.0
1057	3.20364e+02	1.05700e+03	2.87993	318.5
1058	3.20875e+02	1.05800e+03	2.87838	319.0
1059	3.21381e+02	1.05900e+03	2.87684	319.5
1060	3.21910e+02	1.06000e+03	2.87527	320.0
1061	3.22404e+02	1.06100e+03	2.87371	320.5
1062	3.22902e+02	1.06200e+03	2.87215	321.0
1063	3.23416e+02	1.06300e+03	2.87058	321.5
1064	3.23903e+02	1.06400e+03	2.86899	322.0
1065	3.24410e+02	1.06500e+03	2.86739	322.5
1066	3.24935e+02	1.06600e+03	2.86578	323.0
1067	3.25452e+02	1.06700e+03	2.86417	323.5
1068	3.25968e+02	1.06800e+03	2.86252	324.0
1069	3.26459e+02	1.06900e+03	2.86087	324.5
1070	3.26969e+02	1.07000e+03	2.85922	325.0
1071	3.27471e+02	1.07100e+03	2.85756	325.5
1072	3.27970e+02	1.07200e+03	2.85586	326.0
1073	3.28467e+02	1.07300e+03	2.85415	326.5
1074	3.28950e+02	1.07400e+03	2.85243	327.0
1075	3.29428e+02	1.07500e+03	2.85069	327.5
1076	3.29930e+02	1.07600e+03	2.84889	328.0
1077	3.30416e+02	1.07700e+03	2.84711	328.5
1078	3.30918e+02	1.07800e+03	2.84531	329.0
1079	3.31434e+02	1.07900e+03	2.84349	329.5
1080	3.31963e+02	1.08000e+03	2.84162	330.0
1081	3.32484e+02	1.08100e+03	2.83974	330.5
1082	3.33013e+02	1.08200e+03	2.83785	331.0
1083	3.33534e+02	1.08300e+03	2.83593	331.5
1084	3.34031e+02	1.08400e+03	2.83393	332.0
1085	3.34538e+02	1.08500e+03	2.83194	332.5
1086	3.35047e+02	1.08600e+03	2.82992	333.0
1087	3.35540e+02	1.08700e+03	2.82787	333.5
1088	3.36040e+02	1.08800e+03	2.82571	334.0
1089	3.36544e+02	1.08900e+03	2.82354	334.5
1090	3.37056e+02	1.09000e+03	2.82133	335.0
1091	3.37574e+02	1.09100e+03	2.81909	335.5
1092	3.38068e+02	1.09200e+03	2.81668	336.0
1093	3.38567e+02	1.09300e+03	2.81428	336.5
1094	3.39067e+02	1.09400e+03	2.81183	337.0
1095	3.39562e+02	1.09500e+03	2.80935	337.5
1096	3.40074e+02	1.09600e+03	2.80667	338.0
1097	3.40573e+02	1.09700e+03	2.804	338.5
1098	3.41072e+02	1.09800e+03	2.80129	339.0
1099	3.41559e+02	1.09900e+03	2.79853	339.5
1100	3.42041e+02	1.10000e+03	2.79555	340.0
1101	3.42522e+02	1.10100e+03	2.7926	340.5
1102	3.43016e+02	1.10200e+03	2.78959	341.0
1103	3.43499e+02	1.10300e+03	2.78654	341.5
1104	3.43975e+02	1.10400e+03	2.78324	342.0
1105	3.44471e+02	1.10500e+03	2.77996	342.5
1106	3.44970e+02	1.10600e+03	2.7766	343.0
1107	3.45466e+02	1.10700e+03	2.77318	343.5
1108	3.45973e+02	1.10800e+03	2.76945	344.0
1109	3.46468e+02	1.10900e+03	2.76573	344.5
1110	3.46950e+02	1.11000e+03	2.76194	345.0
1111	3.47484e+02	1.11100e+03	2.75806	345.5
1112	3.48011e+02	1.11200e+03	2.75379	346.0
1113	3.48518e+02	1.11300e+03	2.74956	346.5
1114	3.49016e+02	1.11400e+03	2.74522	347.0
1115	3.49495e+02	1.11500e+03	2.74079	347.5
1116	3.49985e+02	1.11600e+03	2.73591	348.0
1117	3.50505e+02	1.11700e+03	2.73107	348.5
1118	3.50998e+02	1.11800e+03	2.72612	349.0
1119	3.51495e+02	1.11900e+03	2.72108	349.5
1120	3.51985e+02	1.12000e+03	2.71552	350.0
1121	3.52475e+02	1.12100e+03	2.71002	350.5
1122	3.52978e+02	1.12200e+03	2.70439	351.0
1123	3.53503e+02	1.12300e+03	2.69865	351.5
1124	3.54014e+02	1.12400e+03	2.69233	352.0
1125	3.54502e+02	1.12500e+03	2.68606	352.5
1126	3.54992e+02	1.12600e+03	2.67965	353.0
1127	3.55492e+02	1.12700e+03	2.6731	353.5
1128	3.55973e+02	1.12800e+03	2.66589	354.0
1129	3.56472e+02	1.12900e+03	2.65873	354.5
1130	3.56984e+02	1.13000e+03	2.65139	355.0
1131	3.57504e+02	1.13100e+03	2.64389	355.5
1132	3.57988e+02	1.13200e+03	2.63558	356.0
1133	3.58477e+02	1.13300e+03	2.62732	356.5
1134	3.58951e+02	1.13400e+03	2.61883	357.0
1135	3.59466e+02	1.13500e+03	2.61015	357.5
1136	3.59940e+02	1.13600e+03	2.60046	358.0
1137	3.60419e+02	1.13700e+03	2.59086	358.5
1138	3.60898e+02	1.13800e+03	2.58098	359.0
1139	3.61378e+02	1.13900e+03	2.57085	359.5
1140	3.61864e+02	1.14000e+03	2.55948	360.0
1141	3.62346e+02	1.14100e+03	2.54816	360.5
1142	3.62839e+02	1.14200e+03	2.53649	361.0
1143	3.63324e+02	1.14300e+03	2.52451	361.5
1144	3.63816e+02	1.14400e+03	2.51096	362.0
1145	3.64319e+02	1.14500e+03	2.49758	362.5
1146	3.64809e+02	1.14600e+03	2.48384	363.0
1147	3.65313e+02	1.14700e+03	2.46977	363.5
1148	3.65843e+02	1.14800e+03	2.45405	364.0
1149	3.66354e+02	1.14900e+03	2.4386	364.5
1150	3.66872e+02	1.15000e+03	2.42285	365.0
1151	3.67366e+02	1.15100e+03	2.40683	365.5
1152	3.67836e+02	1.15200e+03	2.38937	366.0
1153	3.68298e+02	1.15300e+03	2.37219	366.5
1154	3.68775e+02	1.15400e+03	2.35479	367.0
1155	3.69256e+02	1.15500e+03	2.33715	367.5
1156	3.69727e+02	1.15600e+03	2.31833	368.0
1157	3.70223e+02	1.15700e+03	2.2997	368.5
1158	3.70697e+02	1.15800e+03	2.28087	369.0
1159	3.71178e+02	1.15900e+03	2.26182	369.5
1160	3.71648e+02	1.16000e+03	2.24172	370.0
1161	3.72118e+02	1.16100e+03	2.22175	370.5
1162	3.72590e+02	1.16200e+03	2.20154	371.0
1163	3.73055e+02	1.16300e+03	2.1811	371.5
1164	3.73532e+02	1.16400e+03	2.15953	372.0
1165	3.74006e+02	1.16500e+03	2.13806	372.5
1166	3.74508e+02	1.16600e+03	2.11632	373.0
1167	3.74982e+02	1.16700e+03	2.09436	373.5
1168	3.75458e+02	1.16800e+03	2.07115	374.0
1169	3.75930e+02	1.16900e+03	2.04817	374.5
1170	3.76414e+02	1.17000e+03	2.02497	375.0
1171	3.76879e+02	1.17100e+03	2.00158	375.5
1172	3.77359e+02	1.17200e+03	1.97712	376.0
1173	3.77835e+02	1.17300e+03	1.95282	376.5
1174	3.78298e+02	1.17400e+03	1.92835	377.0
1175	3.78779e+02	1.17500e+03	1.9037	377.5
1176	3.79258e+02	1.17600e+03	1.87813	378.0
1177	3.79758e+02	1.17700e+03	1.85275	378.5
1178	3.80263e+02	1.17800e+03	1.82724	379.0
1179	3.80752e+02	1.17900e+03	1.8016	379.5
1180	3.81234e+02	1.18000e+03	1.77527	380.0
1181	3.81715e+02	1.18100e+03	1.74909	380.5
1182	3.82192e+02	1.18200e+03	1.72284	381.0
1183	3.82660e+02	1.18300e+03	1.69653	381.5
1184	3.83139e+02	1.18400e+03	1.66983	382.0
1185	3.83627e+02	1.18500e+03	1.64329	382.5
1186	3.84102e+02	1.18600e+03	1.61678	383.0
1187	3.84582e+02	1.18700e+03	1.59027	383.5
1188	3.85082e+02	1.18800e+03	1.56375	384.0
1189	3.85569e+02	1.18900e+03	1.53729	384.5
1190	3.86060e+02	1.19000e+03	1.51086	385.0
1191	3.86557e+02	1.19100e+03	1.48448	385.5
1192	3.87054e+02	1.19200e+03	1.45829	386.0
1193	3.87541e+02	1.19300e+03	1.43212	386.5
1194	3.88025e+02	1.19400e+03	1.40601	387.0
1195	3.88506e+02	1.19500e+03	1.37996	387.5
1196	3.89001e+02	1.19600e+03	1.35418	388.0
1197	3.89528e+02	1.19700e+03	1.32833	388.5
1198	3.90052e+02	1.19800e+03	1.30249	389.0
1199	3.90540e+02	1.19900e+03	1.27667	389.5
1200	3.91042e+02	1.20000e+03	1.251	390.0
1201	3.91568e+02	1.20100e+03	1.2253	390.5
1202	3.92085e+02	1.20200e+03	1.19966	391.0
1203	3.92583e+02	1.20300e+03	1.17407	391.5
1204	3.93092e+02	1.20400e+03	1.14865	392.0
1205	3.93578e+02	1.20500e+03	1.12326	392.5
1206	3.94085e+02	1.20600e+03	1.09792	393.0
1207	3.94566e+02	1.20700e+03	1.07262	393.5
1208	3.95043e+02	1.20800e+03	1.04752	394.0
1209	3.95526e+02	1.20900e+03	1.02232	394.5
1210	3.96040e+02	1.21000e+03	0.997069	395.0
1211	3.96534e+02	1.21100e+03	0.971805	395.5
1212	3.97034e+02	1.21200e+03	0.946431	396.0
1213	3.97512e+02	1.21300e+03	0.921003	396.5
1214	3.97992e+02	1.21400e+03	0.895505	397.0
1215	3.98488e+02	1.21500e+03	0.869958	397.5
1216	3.98990e+02	1.21600e+03	0.84416	398.0
1217	3.99464e+02	1.21700e+03	0.818449	398.5
1218	3.99961e+02	1.21800e+03	0.79277	399.0
1219	4.00485e+02	1.21900e+03	0.767112	399.5
1220	4.01019e+02	1.22000e+03	0.741508	400.0
1221	4.01524e+02	1.22100e+03	0.716043	400.5
1222	4.02043e+02	1.22200e+03	0.69072	401.0
1223	4.02568e+02	1.22300e+03	0.665504	401.5
1224	4.03091e+02	1.22400e+03	0.640821	402.0
1225	4.03597e+02	1.22500e+03	0.616163	402.5
1226	4.04114e+02	1.22600e+03	0.591748	403.0
1227	4.04621e+02	1.22700e+03	0.567547	403.5
1228	4.05117e+02	1.22800e+03	0.544376	404.0
1229	4.05616e+02	1.22900e+03	0.521285	404.5
1230	4.06118e+02	1.23000e+03	0.498608	405.0
1231	4.06658e+02	1.23100e+03	0.476269	405.5
1232	4.07180e+02	1.23200e+03	0.455668	406.0
1233	4.07721e+02	1.23300e+03	0.434938	406.5
1234	4.08256e+02	1.23400e+03	0.414659	407.0
1235	4.08783e+02	1.23500e+03	0.39478	407.5
1236	4.09293e+02	1.23600e+03	0.37697	408.0
1237	4.09788e+02	1.23700e+03	0.35891	408.5
1238	4.10288e+02	1.23800e+03	0.341304	409.0
1239	4.10820e+02	1.23900e+03	0.324107	409.5
1240	4.11333e+02	1.24000e+03	0.309018	410.0
1241	4.11830e+02	1.24100e+03	0.29362	410.5
1242	4.12315e+02	1.24200e+03	0.27863	411.0
1243	4.12811e+02	1.24300e+03	0.264022	411.5
1244	4.13317e+02	1.24400e+03	0.251389	412.0
1245	4.13830e+02	1.24500e+03	0.238439	412.5
1246	4.14350e+02	1.24600e+03	0.225846	413.0
1247	4.14863e+02	1.24700e+03	0.213592	413.5
1248	4.15368e+02	1.24800e+03	0.203083	414.0
1249	4.15868e+02	1.24900e+03	0.192273	414.5
1250	4.16350e+02	1.25000e+03	0.181768	415.0
1251	4.16843e+02	1.25100e+03	0.171559	415.5
1252	4.17351e+02	1.25200e+03	0.162876	416.0
1253	4.17866e+02	1.25300e+03	0.153956	416.5
1254	4.18376e+02	1.25400e+03	0.145319	417.0
1255	4.18902e+02	1.25500e+03	0.136949	417.5
1256	4.19428e+02	1.25600e+03	0.129951	418.0
1257	4.19949e+02	1.25700e+03	0.122717	418.5
1258	4.20436e+02	1.25800e+03	0.115719	419.0
1259	4.20935e+02	1.25900e+03	0.108951	419.5
1260	4.21453e+02	1.26000e+03	0.103361	420.0
1261	4.21988e+02	1.26100e+03	0.0975632	420.5
1262	4.22525e+02	1.26200e+03	0.0919631	421.0
1263	4.23036e+02	1.26300e+03	0.0865552	421.5
1264	4.23537e+02	1.26400e+03	0.0821321	422.0
1265	4.24040e+02	1.26500e+03	0.0775286	422.5
1266	4.24545e+02	1.26600e+03	0.0730871	423.0
1267	4.25037e+02	1.26700e+03	0.0688053	423.5
1268	4.25519e+02	1.26800e+03	0.0653419	424.0
1269	4.26000e+02	1.26900e+03	0.0617354	424.5
1270	4.26492e+02	1.27000e+03	0.0582653	425.0
1271	4.27004e+02	1.27100e+03	0.0549262	425.5
1272	4.27498e+02	1.27200e+03	0.0522641	426.0
1273	4.27989e+02	1.27300e+03	0.0494657	426.5
1274	4.28488e+02	1.27400e+03	0.0467671	427.0
1275	4.28991e+02	1.27500e+03	0.0441703	427.5
1276	4.29501e+02	1.27600e+03	0.0421	428.0
1277	4.30007e+02	1.27700e+03	0.0399311	428.5
1278	4.30518e+02	1.27800e+03	0.037844	429.0
1279	4.31013e+02	1.27900e+03	0.0358374	429.5
1280	4.31505e+02	1.28000e+03	0.0342428	430.0
1281	4.32008e+02	1.28100e+03	0.0325616	430.5
1282	4.32506e+02	1.28200e+03	0.030939	431.0
1283	4.32986e+02	1.28300e+03	0.0293784	431.5
1284	4.33483e+02	1.28400e+03	0.0281344	432.0
1285	4.33993e+02	1.28500e+03	0.0268358	432.5
1286	4.34490e+02	1.28600e+03	0.0255903	433.0
1287	4.34986e+02	1.28700e+03	0.0243953	433.5
1288	4.35497e+02	1.28800e+03	0.0234537	434.0
1289	4.36001e+02	1.28900e+03	0.0224516	434.5
1290	4.36511e+02	1.29000e+03	0.0214755	435.0
1291	4.36990e+02	1.29100e+03	0.020529	435.5
1292	4.37478e+02	1.29200e+03	0.0197504	436.0
1293	4.37948e+02	1.29300e+03	0.0189357	436.5
1294	4.38440e+02	1.29400e+03	0.0181478	437.0
1295	4.38936e+02	1.29500e+03	0.0173877	437.5
1296	4.39442e+02	1.29600e+03	0.0167602	438.0
1297	4.39948e+02	1.29700e+03	0.0161189	438.5
1298	4.40451e+02	1.29800e+03	0.0155036	439.0
1299	4.40942e+02	1.29900e+03	0.0149111	439.5
1300	4.41464e+02	1.30000e+03	0.0144467	440.0
1301	4.41960e+02	1.30100e+03	0.0139505	440.5
1302	4.42465e+02	1.30200e+03	0.0134678	441.0
1303	4.42949e+02	1.30300e+03	0.0130005	441.5
1304	4.43461e+02	1.30400e+03	0.0126068	442.0
1305	4.43945e+02	1.30500e+03	0.0121914	442.5
1306	4.44457e+02	1.30600e+03	0.0117804	443.0
1307	4.44945e+02	1.30700e+03	0.0113765	443.5
1308	4.45423e+02	1.30800e+03	0.0110164	444.0
1309	4.45881e+02	1.30900e+03	0.0106547	444.5
1310	4.46371e+02	1.31000e+03	0.0103088	445.0
1311	4.46872e+02	1.31100e+03	0.00997704	445.5
1312	4.47367e+02	1.31200e+03	0.00970758	446.0
1313	4.47843e+02	1.31300e+03	0.00943409	446.5
1314	4.48324e+02	1.31400e+03	0.00917086	447.0
1315	4.48816e+02	1.31500e+03	0.00891668	447.5
1316	4.49309e+02	1.31600e+03	0.00871915	448.0
1317	4.49806e+02	1.31700e+03	0.00849802	448.5
1318	4.50297e+02	1.31800e+03	0.00827863	449.0
1319	4.50795e+02	1.31900e+03	0.00806289	449.5
1320	4.51275e+02	1.32000e+03	0.0078629	450.0
1321	4.51800e+02	1.32100e+03	0.00766703	450.5
1322	4.52314e+02	1.32200e+03	0.00747889	451.0
1323	4.52808e+02	1.32300e+03	0.00729641	451.5
1324	4.53296e+02	1.32400e+03	0.00714362	452.0
1325	4.53772e+02	1.32500e+03	0.00698604	452.5
1326	4.54242e+02	1.32600e+03	0.00683533	453.0
1327	4.54705e+02	1.32700e+03	0.00669169	453.5
1328	4.55176e+02	1.32800e+03	0.00658511	454.0
1329	4.55651e+02	1.32900e+03	0.00648028	454.5
1330	4.56134e+02	1.33000e+03	0.006386	455.0
1331	4.56616e+02	1.33100e+03	0.00629901	455.5
1332	4.57111e+02	1.33200e+03	0.00625345	456.0
1333	4.57606e+02	1.33300e+03	0.00619569	456.5
1334	4.58088e+02	1.33400e+03	0.00614322	457.0
1335	4.58576e+02	1.33500e+03	0.00609734	457.5
1336	4.59049e+02	1.33600e+03	0.00608023	458.0
1337	4.59531e+02	1.33700e+03	0.0060612	458.5
1338	4.60008e+02	1.33800e+03	0.00604633	459.0
1339	4.60486e+02	1.33900e+03	0.00603428	459.5
1340	4.60982e+02	1.34000e+03	0.00604099	460.0
1341	4.61448e+02	1.34100e+03	0.00603188	460.5
1342	4.61930e+02	1.34200e+03	0.0060154	461.0
1343	4.62420e+02	1.34300e+03	0.00599522	461.5
1344	4.62923e+02	1.34400e+03	0.00595919	462.0
1345	4.63402e+02	1.34500e+03	0.00592497	462.5
1346	4.63890e+02	1.34600e+03	0.00588754	463.0
1347	4.64371e+02	1.34700e+03	0.00584732	463.5
1348	4.64869e+02	1.34800e+03	0.00578911	464.0
1349	4.65358e+02	1.34900e+03	0.00573832	464.5
1350	4.65832e+02	1.35000e+03	0.00569361	465.0
1351	4.66318e+02	1.35100e+03	0.00565355	465.5
1352	4.66805e+02	1.35200e+03	0.00562993	466.0
1353	4.67282e+02	1.35300e+03	0.00561865	466.5
1354	4.67773e+02	1.35400e+03	0.00561776	467.0
1355	4.68245e+02	1.35500e+03	0.00562265	467.5
1356	4.68725e+02	1.35600e+03	0.00566613	468.0
1357	4.69214e+02	1.35700e+03	0.00568784	468.5
1358	4.69691e+02	1.35800e+03	0.00570417	469.0
1359	4.70170e+02	1.35900e+03	0.0057198	469.5
1360	4.70641e+02	1.36000e+03	0.00573231	470.0
1361	4.71116e+02	1.36100e+03	0.00574667	470.5
1362	4.71594e+02	1.36200e+03	0.00576225	471.0
1363	4.72083e+02	1.36300e+03	0.00577845	471.5
1364	4.72561e+02	1.36400e+03	0.00578794	472.0
1365	4.73042e+02	1.36500e+03	0.00579363	472.5
1366	4.73528e+02	1.36600e+03	0.00579256	473.0
1367	4.74021e+02	1.36700e+03	0.00578642	473.5
1368	4.74519e+02	1.36800e+03	0.00576561	474.0
1369	4.75011e+02	1.36900e+03	0.0057484	474.5
1370	4.75509e+02	1.37000e+03	0.00573121	475.0
1371	4.75993e+02	1.37100e+03	0.00571396	475.5
1372	4.76484e+02	1.37200e+03	0.00568895	476.0
1373	4.76983e+02	1.37300e+03	0.00566836	476.5
1374	4.77471e+02	1.37400e+03	0.00564546	477.0
1375	4.77968e+02	1.37500e+03	0.00561985	477.5
1376	4.78462e+02	1.37600e+03	0.0055922	478.0
1377	4.78941e+02	1.37700e+03	0.00556197	478.5
1378	4.79434e+02	1.37800e+03	0.00553184	479.0
1379	4.79931e+02	1.37900e+03	0.0055029	479.5
1380	4.80408e+02	1.38000e+03	0.00547541	480.0
1381	4.80904e+02	1.38100e+03	0.00545695	480.5
1382	4.81400e+02	1.38200e+03	0.00544223	481.0
1383	4.81890e+02	1.38300e+03	0.00542892	481.5
1384	4.82387e+02	1.38400e+03	0.00543105	482.0
1385	4.82865e+02	1.38500e+03	0.00542333	482.5
1386	4.83377e+02	1.38600e+03	0.00541588	483.0
1387	4.83873e+02	1.38700e+03	0.00541107	483.5
1388	4.84368e+02	1.38800e+03	0.00540924	484.0
1389	4.84865e+02	1.38900e+03	0.00541109	484.5
1390	4.85368e+02	1.39000e+03	0.00541268	485.0
1391	4.85870e+02	1.39100e+03	0.00541233	485.5
1392	4.86370e+02	1.39200e+03	0.00541043	486.0
1393	4.86857e+02	1.39300e+03	0.00539664	486.5
1394	4.87353e+02	1.39400e+03	0.00537521	487.0
1395	4.87848e+02	1.39500e+03	0.00534954	487.5
1396	4.88358e+02	1.39600e+03	0.00530102	488.0
1397	4.88851e+02	1.39700e+03	0.00526651	488.5
1398	4.89346e+02	1.39800e+03	0.00523589	489.0
1399	4.89842e+02	1.39900e+03	0.00520651	489.5
1400	4.90341e+02	1.40000e+03	0.00518391	490.0
1401	4.90848e+02	1.40100e+03	0.00516284	490.5
1402	4.91344e+02	1.40200e+03	0.00514673	491.0
1403	4.91842e+02	1.40300e+03	0.00513496	491.5
1404	4.92334e+02	1.40400e+03	0.00514252	492.0
1405	4.92824e+02	1.40500e+03	0.00514835	492.5
1406	4.93318e+02	1.40600e+03	0.00515604	493.0
1407	4.93804e+02	1.40700e+03	0.00516476	493.5
1408	4.94298e+02	1.40800e+03	0.00518145	494.0
1409	4.94796e+02	1.40900e+03	0.0051871	494.5
1410	4.95302e+02	1.41000e+03	0.00518939	495.0
1411	4.95806e+02	1.41100e+03	0.00519085	495.5
1412	4.96293e+02	1.41200e+03	0.00518182	496.0
1413	4.96793e+02	1.41300e+03	0.00518111	496.5
1414	4.97289e+02	1.41400e+03	0.00518332	497.0
1415	4.97788e+02	1.41500e+03	0.00518645	497.5
1416	4.98283e+02	1.41600e+03	0.00519118	498.0
1417	4.98775e+02	1.41700e+03	0.0051896	498.5
1418	4.99264e+02	1.41800e+03	0.00518396	499.0
1419	4.99770e+02	1.41900e+03	0.0051762	499.5
1420	5.00258e+02	1.42000e+03	0.00515939	500.0
1421	5.00761e+02	1.42100e+03	0.00514494	500.5
1422	5.01257e+02	1.42200e+03	0.00513059	501.0
1423	5.01749e+02	1.42300e+03	0.00511645	501.5
1424	5.02245e+02	1.42400e+03	0.00509759	502.0
1425	5.02726e+02	1.42500e+03	0.00508213	502.5
1426	5.03227e+02	1.42600e+03	0.00506905	503.0
1427	5.03722e+02	1.42700e+03	0.00505759	503.5
1428	5.04210e+02	1.42800e+03	0.00505032	504.0
1429	5.04730e+02	1.42900e+03	0.00504224	504.5
1430	5.05253e+02	1.43000e+03	0.00503443	505.0
1431	5.05773e+02	1.43100e+03	0.00502654	505.5
1432	5.06300e+02	1.43200e+03	0.00502229	506.0
1433	5.06838e+02	1.43300e+03	0.00501645	506.5
1434	5.07357e+02	1.43400e+03	0.00501025	507.0
1435	5.07886e+02	1.43500e+03	0.0050038	507.5
1436	5.08384e+02	1.43600e+03	0.00499407	508.0
1437	5.08890e+02	1.43700e+03	0.00498118	508.5
1438	5.09413e+02	1.43800e+03	0.00496606	509.0
1439	5.09915e+02	1.43900e+03	0.00495087	509.5
1440	5.10421e+02	1.44000e+03	0.00493525	510.0
1441	5.10952e+02	1.44100e+03	0.00492682	510.5
1442	5.11462e+02	1.44200e+03	0.0049241	511.0
1443	5.12047e+02	1.44300e+03	0.00492499	511.5
1444	5.12565e+02	1.44400e+03	0.00493899	512.0
1445	5.13532e+02	1.44500e+03	0.00494724	512.5
1446	5.14011e+02	1.44600e+03	0.00495504	513.0
1447	5.14430e+02	1.44700e+03	0.00496326	513.5
1448	5.14879e+02	1.44800e+03	0.00497794	514.0
1449	5.15353e+02	1.44900e+03	0.00499328	514.5
1450	5.15877e+02	1.45000e+03	0.00501252	515.0
1451	5.16400e+02	1.45100e+03	0.00503436	515.5
1452	5.16913e+02	1.45200e+03	0.00505936	516.0
1453	5.17398e+02	1.45300e+03	0.00507816	516.5
1454	5.17880e+02	1.45400e+03	0.00509097	517.0
1455	5.18406e+02	1.45500e+03	0.00509964	517.5
1456	5.18917e+02	1.45600e+03	0.00509555	518.0
1457	5.19434e+02	1.45700e+03	0.00509021	518.5
1458	5.19905e+02	1.45800e+03	0.00508185	519.0
1459	5.20396e+02	1.45900e+03	0.0050716	519.5
1460	5.20888e+02	1.46000e+03	0.00504021	520.0
1461	5.21348e+02	1.46100e+03	0.00501494	520.5
1462	5.21850e+02	1.46200e+03	0.00498942	521.0
1463	5.22466e+02	1.46300e+03	0.00496342	521.5
1464	5.23076e+02	1.46400e+03	0.00493923	522.0
1465	5.23478e+02	1.46500e+03	0.0049245	522.5
1466	5.24034e+02	1.46600e+03	0.00491884	523.0
1467	5.24923e+02	1.46700e+03	0.00491876	523.5
1468	5.24708e+02	1.46800e+03	0.00494384	524.0
1469	5.24999e+02	1.46900e+03	0.00496217	524.5
1470	5.25357e+02	1.47000e+03	0.00497866	525.0
1471	5.25778e+02	1.47100e+03	0.00499439	525.5
1472	5.26209e+02	1.47200e+03	0.00501657	526.0
1473	5.26663e+02	1.47300e+03	0.00502762	526.5
1474	5.27107e+02	1.47400e+03	0.00503419	527.0
1475	5.27570e+02	1.47500e+03	0.00503929	527.5
1476	5.28037e+02	1.47600e+03	0.00502835	528.0
1477	5.28512e+02	1.47700e+03	0.00502523	528.5
1478	5.28985e+02	1.47800e+03	0.00502248	529.0
1479	5.29462e+02	1.47900e+03	0.00501921	529.5
1480	5.29908e+02	1.48000e+03	0.00502221	530.0
1481	5.30380e+02	1.48100e+03	0.00502906	530.5
1482	5.30851e+02	1.48200e+03	0.00504013	531.0
1483	5.31334e+02	1.48300e+03	0.00505435	531.5
1484	5.31814e+02	1.48400e+03	0.00508198	532.0
1485	5.32303e+02	1.48500e+03	0.00510225	532.5
1486	5.32779e+02	1.48600e+03	0.00511686	533.0
1487	5.33278e+02	1.48700e+03	0.00512719	533.5
1488	5.33764e+02	1.48800e+03	0.00512663	534.0
1489	5.34261e+02	1.48900e+03	0.00512145	534.5
1490	5.34737e+02	1.49000e+03	0.00511409	535.0
1491	5.35231e+02	1.49100e+03	0.00510643	535.5
1492	5.35717e+02	1.49200e+03	0.00508271	536.0
1493	5.36213e+02	1.49300e+03	0.00507159	536.5
1494	5.36687e+02	1.49400e+03	0.00506101	537.0
1495	5.37179e+02	1.49500e+03	0.00504764	537.5
1496	5.37663e+02	1.49600e+03	0.00503293	538.0
1497	5.38145e+02	1.49700e+03	0.00500887	538.5
1498	5.38617e+02	1.49800e+03	0.00498213	539.0
1499	5.39108e+02	1.49900e+03	0.00495607	539.5
1500	5.39605e+02	1.50000e+03	0.00492323	540.0
1501	5.40089e+02	1.50100e+03	0.00490688	540.5
1502	5.40575e+02	1.50200e+03	0.00489918	541.0
1503	5.41054e+02	1.50300e+03	0.00489551	541.5
1504	5.41539e+02	1.50400e+03	0.00491391	542.0
1505	5.42024e+02	1.50500e+03	0.00491882	542.5
1506	5.42509e+02	1.50600e+03	0.00491992	543.0
1507	5.43002e+02	1.50700e+03	0.0049195	543.5
1508	5.43496e+02	1.50800e+03	0.0049152	544.0
1509	5.43986e+02	1.50900e+03	0.00491433	544.5
1510	5.44470e+02	1.51000e+03	0.00491534	545.0
1511	5.44972e+02	1.51100e+03	0.00491695	545.5
1512	5.45461e+02	1.51200e+03	0.00491472	546.0
1513	5.45950e+02	1.51300e+03	0.00490967	546.5
1514	5.46442e+02	1.51400e+03	0.00490105	547.0
1515	5.46935e+02	1.51500e+03	0.00488997	547.5
1516	5.47417e+02	1.51600e+03	0.00487176	548.0
1517	5.47915e+02	1.51700e+03	0.00485633	548.5
1518	5.48410e+02	1.51800e+03	0.00484226	549.0
1519	5.48885e+02	1.51900e+03	0.0048288	549.5
1520	5.49376e+02	1.52000e+03	0.00481379	550.0
1521	5.49877e+02	1.52100e+03	0.00480142	550.5
1522	5.50371e+02	1.52200e+03	0.00479121	551.0
1523	5.50865e+02	1.52300e+03	0.0047831	551.5
1524	5.51354e+02	1.52400e+03	0.00478719	552.0
1525	5.51837e+02	1.52500e+03	0.00479104	552.5
1526	5.52333e+02	1.52600e+03	0.0047965	553.0
1527	5.52824e+02	1.52700e+03	0.00480312	553.5
1528	5.53299e+02	1.52800e+03	0.00481589	554.0
1529	5.53781e+02	1.52900e+03	0.00482021	554.5
1530	5.54274e+02	1.53000e+03	0.00482178	555.0
1531	5.54766e+02	1.53100e+03	0.00482343	555.5
1532	5.55247e+02	1.53200e+03	0.00482185	556.0
1533	5.55736e+02	1.53300e+03	0.00482903	556.5
1534	5.56222e+02	1.53400e+03	0.00484349	557.0
1535	5.56699e+02	1.53500e+03	0.00486223	557.5
1536	5.57174e+02	1.53600e+03	0.00489684	558.0
1537	5.57659e+02	1.53700e+03	0.00492542	558.5
1538	5.58139e+02	1.53800e+03	0.00495168	559.0
1539	5.58626e+02	1.53900e+03	0.00497712	559.5
1540	5.59118e+02	1.54000e+03	0.00500627	560.0
1541	5.59604e+02	1.54100e+03	0.00502972	560.5
1542	5.60087e+02	1.54200e+03	0.00504978	561.0
1543	5.60572e+02	1.54300e+03	0.00506748	561.5
1544	5.61062e+02	1.54400e+03	0.00506932	562.0
1545	5.61559e+02	1.54500e+03	0.00507005	562.5
1546	5.62039e+02	1.54600e+03	0.00506292	563.0
1547	5.62533e+02	1.54700e+03	0.00504991	563.5
1548	5.63029e+02	1.54800e+03	0.00501738	564.0
1549	5.63490e+02	1.54900e+03	0.00499352	564.5
1550	5.63960e+02	1.55000e+03	0.00497325	565.0
1551	5.64462e+02	1.55100e+03	0.00495497	565.5
1552	5.64944e+02	1.55200e+03	0.00494012	566.0
1553	5.65426e+02	1.55300e+03	0.00493235	566.5
1554	5.65915e+02	1.55400e+03	0.00492705	567.0
1555	5.66391e+02	1.55500e+03	0.00492222	567.5
1556	5.66885e+02	1.55600e+03	0.00493458	568.0
1557	5.67367e+02	1.55700e+03	0.00493931	568.5
1558	5.67846e+02	1.55800e+03	0.00494449	569.0
1559	5.68336e+02	1.55900e+03	0.00495085	569.5
1560	5.68832e+02	1.56000e+03	0.00495516	570.0
1561	5.69313e+02	1.56100e+03	0.00495836	570.5
1562	5.69794e+02	1.56200e+03	0.00495783	571.0
1563	5.70289e+02	1.56300e+03	0.00495419	571.5
1564	5.70780e+02	1.56400e+03	0.00494555	572.0
1565	5.71281e+02	1.56500e+03	0.00493934	572.5
1566	5.71781e+02	1.56600e+03	0.00493683	573.0
1567	5.72260e+02	1.56700e+03	0.00493741	573.5
1568	5.72749e+02	1.56800e+03	0.0049432	574.0
1569	5.73236e+02	1.56900e+03	0.00495254	574.5
1570	5.73729e+02	1.57000e+03	0.00496213	575.0
1571	5.74211e+02	1.57100e+03	0.00497056	575.5
1572	5.74707e+02	1.57200e+03	0.00498356	576.0
1573	5.75197e+02	1.57300e+03	0.00498491	576.5
1574	5.75720e+02	1.57400e+03	0.0049818	577.0
1575	5.76218e+02	1.57500e+03	0.00497708	577.5
1576	5.76722e+02	1.57600e+03	0.00495282	578.0
1577	5.77234e+02	1.57700e+03	0.00493695	578.5
1578	5.77752e+02	1.57800e+03	0.00492108	579.0
1579	5.78247e+02	1.57900e+03	0.00490428	579.5
1580	5.78746e+02	1.58000e+03	0.00488787	580.0
1581	5.79239e+02	1.58100e+03	0.00487474	580.5
1582	5.79725e+02	1.58200e+03	0.00486615	581.0
1583	5.80225e+02	1.58300e+03	0.00486112	581.5
1584	5.80740e+02	1.58400e+03	0.00486973	582.0
1585	5.81254e+02	1.58500e+03	0.00487904	582.5
1586	5.81766e+02	1.58600e+03	0.00488869	583.0
1587	5.82268e+02	1.58700e+03	0.00489722	583.5
1588	5.82777e+02	1.58800e+03	0.00490992	584.0
1589	5.83276e+02	1.58900e+03	0.00490613	584.5
1590	5.83795e+02	1.59000e+03	0.00489299	585.0
1591	5.84292e+02	1.59100e+03	0.00487733	585.5
1592	5.84795e+02	1.59200e+03	0.00484681	586.0
1593	5.85289e+02	1.59300e+03	0.00483393	586.5
1594	5.85785e+02	1.59400e+03	0.00482848	587.0
1595	5.86299e+02	1.59500e+03	0.00482646	587.5
1596	5.86778e+02	1.59600e+03	0.00484613	588.0
1597	5.87287e+02	1.59700e+03	0.00486001	588.5
1598	5.87819e+02	1.59800e+03	0.00487548	589.0
1599	5.88339e+02	1.59900e+03	0.00489379	589.5
1600	5.88846e+02	1.60000e+03	0.00492871	590.0
1601	5.89326e+02	1.60100e+03	0.0049601	590.5
1602	5.89813e+02	1.60200e+03	0.00499164	591.0
1603	5.90310e+02	1.60300e+03	0.0050229	591.5
1604	5.90785e+02	1.60400e+03	0.00505448	592.0
1605	5.91255e+02	1.60500e+03	0.00507713	592.5
1606	5.91743e+02	1.60600e+03	0.00509375	593.0
1607	5.92247e+02	1.60700e+03	0.00510774	593.5
1608	5.92763e+02	1.60800e+03	0.00510585	594.0
1609	5.93245e+02	1.60900e+03	0.0051121	594.5
1610	5.93723e+02	1.61000e+03	0.00512	595.0
1611	5.94225e+02	1.61100e+03	0.00512775	595.5
1612	5.94727e+02	1.61200e+03	0.00513362	596.0
1613	5.95233e+02	1.61300e+03	0.00513823	596.5
1614	5.95730e+02	1.61400e+03	0.0051396	597.0
1615	5.96227e+02	1.61500e+03	0.00513884	597.5
1616	5.96722e+02	1.61600e+03	0.00513992	598.0
1617	5.97214e+02	1.61700e+03	0.0051461	598.5
1618	5.97710e+02	1.61800e+03	0.00515768	599.0
1619	5.98214e+02	1.61900e+03	0.00517316	599.5
1620	5.98707e+02	1.62000e+03	0.00520038	600.0
1621	5.99190e+02	1.62100e+03	0.00522399	600.5
1622	5.99677e+02	1.62200e+03	0.00524469	601.0
1623	6.00172e+02	1.62300e+03	0.00526321	601.5
1624	6.00668e+02	1.62400e+03	0.00528136	602.0
1625	6.01168e+02	1.62500e+03	0.0052905	602.5
1626	6.01649e+02	1.62600e+03	0.00529151	603.0
1627	6.02144e+02	1.62700e+03	0.00528667	603.5
1628	6.02650e+02	1.62800e+03	0.0052515	604.0
1629	6.03140e+02	1.62900e+03	0.00521848	604.5
1630	6.03638e+02	1.63000e+03	0.00518024	605.0
1631	6.04143e+02	1.63100e+03	0.00513955	605.5
1632	6.04626e+02	1.63200e+03	0.00508482	606.0
1633	6.05118e+02	1.63300e+03	0.00504797	606.5
1634	6.05615e+02	1.63400e+03	0.00502021	607.0
1635	6.06111e+02	1.63500e+03	0.00499678	607.5
1636	6.06608e+02	1.63600e+03	0.00499451	608.0
1637	6.07120e+02	1.63700e+03	0.00498474	608.5
1638	6.07599e+02	1.63800e+03	0.00497462	609.0
1639	6.08109e+02	1.63900e+03	0.00496525	609.5
1640	6.08643e+02	1.64000e+03	0.0049652	610.0
1641	6.09185e+02	1.64100e+03	0.00496382	610.5
1642	6.09724e+02	1.64200e+03	0.00496599	611.0
1643	6.10271e+02	1.64300e+03	0.00497085	611.5
1644	6.10767e+02	1.64400e+03	0.00498226	612.0
1645	6.11279e+02	1.64500e+03	0.00498988	612.5
1646	6.11758e+02	1.64600e+03	0.00499163	613.0
1647	6.12256e+02	1.64700e+03	0.00498831	613.5
1648	6.12757e+02	1.64800e+03	0.00497788	614.0
1649	6.13237e+02	1.64900e+03	0.00496651	614.5
1650	6.13747e+02	1.65000e+03	0.00495749	615.0
1651	6.14248e+02	1.65100e+03	0.00495073	615.5
1652	6.14758e+02	1.65200e+03	0.00493562	616.0
1653	6.15266e+02	1.65300e+03	0.0049306	616.5
1654	6.15781e+02	1.65400e+03	0.00492804	617.0
1655	6.16282e+02	1.65500e+03	0.00492569	617.5
1656	6.16786e+02	1.65600e+03	0.00493553	618.0
1657	6.17299e+02	1.65700e+03	0.00493658	618.5
1658	6.17817e+02	1.65800e+03	0.00493672	619.0
1659	6.18322e+02	1.65900e+03	0.00493811	619.5
1660	6.18812e+02	1.66000e+03	0.00493918	620.0
1661	6.19301e+02	1.66100e+03	0.00494509	620.5
1662	6.19800e+02	1.66200e+03	0.00495302	621.0
1663	6.20289e+02	1.66300e+03	0.00496139	621.5
1664	6.20781e+02	1.66400e+03	0.004976	622.0
1665	6.21277e+02	1.66500e+03	0.00498594	622.5
1666	6.21791e+02	1.66600e+03	0.0049968	623.0
1667	6.22302e+02	1.66700e+03	0.00500977	623.5
1668	6.22827e+02	1.66800e+03	0.005026	624.0
1669	6.23339e+02	1.66900e+03	0.00504631	624.5
1670	6.23855e+02	1.67000e+03	0.00506887	625.0
1671	6.24373e+02	1.67100e+03	0.00509188	625.5
1672	6.24890e+02	1.67200e+03	0.00512024	626.0
1673	6.25412e+02	1.67300e+03	0.00513795	626.5
1674	6.25930e+02	1.67400e+03	0.00514934	627.0
1675	6.26431e+02	1.67500e+03	0.00515725	627.5
1676	6.26911e+02	1.67600e+03	0.00514365	628.0
1677	6.27414e+02	1.67700e+03	0.00513292	628.5
1678	6.27921e+02	1.67800e+03	0.00511849	629.0
1679	6.28428e+02	1.67900e+03	0.00510047	629.5
1680	6.28930e+02	1.68000e+03	0.00506132	630.0
1681	6.29431e+02	1.68100e+03	0.00502771	630.5
1682	6.29936e+02	1.68200e+03	0.00499488	631.0
1683	6.30436e+02	1.68300e+03	0.00496376	631.5
1684	6.30934e+02	1.68400e+03	0.00494232	632.0
1685	6.31415e+02	1.68500e+03	0.00493399	632.5
1686	6.31947e+02	1.68600e+03	0.00493485	633.0
1687	6.32449e+02	1.68700e+03	0.00494	633.5
1688	6.32945e+02	1.68800e+03	0.00497137	634.0
1689	6.33446e+02	1.68900e+03	0.00498022	634.5
1690	6.33971e+02	1.69000e+03	0.00498208	635.0
1691	6.34484e+02	1.69100e+03	0.00498292	635.5
1692	6.35010e+02	1.69200e+03	0.00497837	636.0
1693	6.35473e+02	1.69300e+03	0.00498689	636.5
1694	6.35898e+02	1.69400e+03	0.00500395	637.0
1695	6.36378e+02	1.69500e+03	0.0050256	637.5
1696	6.36845e+02	1.69600e+03	0.00505921	638.0
1697	6.37336e+02	1.69700e+03	0.00508261	638.5
1698	6.37810e+02	1.69800e+03	0.00509991	639.0
1699	6.38283e+02	1.69900e+03	0.00511355	639.5
1700	6.38745e+02	1.70000e+03	0.00512207	640.0
1701	6.39231e+02	1.70100e+03	0.00513274	640.5
1702	6.39717e+02	1.70200e+03	0.00514563	641.0
1703	6.40200e+02	1.70300e+03	0.00515973	641.5
1704	6.40675e+02	1.70400e+03	0.0051708	642.0
1705	6.41149e+02	1.70500e+03	0.00518512	642.5
1706	6.41622e+02	1.70600e+03	0.00519848	643.0
1707	6.42104e+02	1.70700e+03	0.0052101	643.5
1708	6.42593e+02	1.70800e+03	0.00522111	644.0
1709	6.43077e+02	1.70900e+03	0.00522703	644.5
1710	6.43560e+02	1.71000e+03	0.00523006	645.0
1711	6.44049e+02	1.71100e+03	0.00523133	645.5
1712	6.44531e+02	1.71200e+03	0.00521945	646.0
1713	6.45022e+02	1.71300e+03	0.00521135	646.5
1714	6.45508e+02	1.71400e+03	0.00520125	647.0
1715	6.46002e+02	1.71500e+03	0.00518867	647.5
1716	6.46507e+02	1.71600e+03	0.00517277	648.0
1717	6.46999e+02	1.71700e+03	0.00516336	648.5
1718	6.47495e+02	1.71800e+03	0.00515995	649.0
1719	6.47985e+02	1.71900e+03	0.00516013	649.5
1720	6.48473e+02	1.72000e+03	0.00516698	650.0
1721	6.48965e+02	1.72100e+03	0.00517108	650.5
1722	6.49461e+02	1.72200e+03	0.00517191	651.0
1723	6.49955e+02	1.72300e+03	0.00517016	651.5
1724	6.50448e+02	1.72400e+03	0.00516882	652.0
1725	6.50950e+02	1.72500e+03	0.00516466	652.5
1726	6.51438e+02	1.72600e+03	0.00515925	653.0
1727	6.51926e+02	1.72700e+03	0.00515305	653.5
1728	6.52412e+02	1.72800e+03	0.00513541	654.0
1729	6.52914e+02	1.72900e+03	0.00511955	654.5
1730	6.53408e+02	1.73000e+03	0.00509709	655.0
1731	6.53895e+02	1.73100e+03	0.00506758	655.5
1732	6.54388e+02	1.73200e+03	0.00502106	656.0
1733	6.54890e+02	1.73300e+03	0.00497597	656.5
1734	6.55383e+02	1.73400e+03	0.00493353	657.0
1735	6.55884e+02	1.73500e+03	0.004895	657.5
1736	6.56392e+02	1.73600e+03	0.004859	658.0
1737	6.56886e+02	1.73700e+03	0.00484151	658.5
1738	6.57387e+02	1.73800e+03	0.00483408	659.0
1739	6.57870e+02	1.73900e+03	0.00483059	659.5
1740	6.58363e+02	1.74000e+03	0.00486563	660.0
1741	6.58852e+02	1.74100e+03	0.00488035	660.5
1742	6.59346e+02	1.74200e+03	0.00489284	661.0
1743	6.59836e+02	1.74300e+03	0.00490843	661.5
1744	6.60325e+02	1.74400e+03	0.00492917	662.0
1745	6.60818e+02	1.74500e+03	0.00495119	662.5
1746	6.61301e+02	1.74600e+03	0.00497302	663.0
1747	6.61781e+02	1.74700e+03	0.0049937	663.5
1748	6.62267e+02	1.74800e+03	0.00501428	664.0
1749	6.62744e+02	1.74900e+03	0.00502486	664.5
1750	6.63235e+02	1.75000e+03	0.00503078	665.0
1751	6.63718e+02	1.75100e+03	0.00503606	665.5
1752	6.64214e+02	1.75200e+03	0.00502904	666.0
1753	6.64692e+02	1.75300e+03	0.00503356	666.5
1754	6.65182e+02	1.75400e+03	0.00504145	667.0
1755	6.65669e+02	1.75500e+03	0.00504959	667.5
1756	6.66145e+02	1.75600e+03	0.00506426	668.0
1757	6.66642e+02	1.75700e+03	0.00507132	668.5
1758	6.67138e+02	1.75800e+03	0.00507595	669.0
1759	6.67622e+02	1.75900e+03	0.00508133	669.5
1760	6.68108e+02	1.76000e+03	0.00508457	670.0
1761	6.68609e+02	1.76100e+03	0.00509067	670.5
1762	6.69107e+02	1.76200e+03	0.00509611	671.0
1763	6.69610e+02	1.76300e+03	0.00510009	671.5
1764	6.70088e+02	1.76400e+03	0.00509682	672.0
1765	6.70591e+02	1.76500e+03	0.00508644	672.5
1766	6.71084e+02	1.76600e+03	0.00507324	673.0
1767	6.71576e+02	1.76700e+03	0.00506027	673.5
1768	6.72084e+02	1.76800e+03	0.0050373	674.0
1769	6.72580e+02	1.76900e+03	0.00502827	674.5
1770	6.73087e+02	1.77000e+03	0.0050266	675.0
1771	6.73580e+02	1.77100e+03	0.00502864	675.5
1772	6.74077e+02	1.77200e+03	0.00504725	676.0
1773	6.74577e+02	1.77300e+03	0.00505437	676.5
1774	6.75064e+02	1.77400e+03	0.00505641	677.0
1775	6.75564e+02	1.77500e+03	0.00505585	677.5
1776	6.76060e+02	1.77600e+03	0.00504676	678.0
1777	6.76570e+02	1.77700e+03	0.00503631	678.5
1778	6.77061e+02	1.77800e+03	0.00502402	679.0
1779	6.77564e+02	1.77900e+03	0.00501052	679.5
1780	6.78062e+02	1.78000e+03	0.00498335	680.0
1781	6.78568e+02	1.78100e+03	0.0049604	680.5
1782	6.79066e+02	1.78200e+03	0.0049361	681.0
1783	6.79561e+02	1.78300e+03	0.00491161	681.5
1784	6.80069e+02	1.78400e+03	0.0048927	682.0
1785	6.80567e+02	1.78500e+03	0.00488009	682.5
1786	6.81053e+02	1.78600e+03	0.0048737	683.0
1787	6.81570e+02	1.78700e+03	0.00487109	683.5
1788	6.82084e+02	1.78800e+03	0.00488707	684.0
1789	6.82590e+02	1.78900e+03	0.00489705	684.5
1790	6.83101e+02	1.79000e+03	0.00490665	685.0
1791	6.83598e+02	1.79100e+03	0.00491739	685.5
1792	6.84127e+02	1.79200e+03	0.00494683	686.0
1793	6.84618e+02	1.79300e+03	0.00497777	686.5
1794	6.85110e+02	1.79400e+03	0.00501394	687.0
1795	6.85284e+02	1.79500e+03	0.00505418	687.5
1796	6.85464e+02	1.79600e+03	0.00510959	688.0
1797	6.85777e+02	1.79700e+03	0.00515211	688.5
1798	6.86147e+02	1.79800e+03	0.00518775	689.0
1799	6.86531e+02	1.79900e+03	0.00521862	689.5
1800	6.86898e+02	1.80000e+03	0.00523865	690.0
1801	6.87274e+02	1.80100e+03	0.00525793	690.5
1802	6.87614e+02	1.80200e+03	0.00527386	691.0
1803	6.87955e+02	1.80300e+03	0.00528737	691.5
1804	6.88295e+02	1.80400e+03	0.00528766	692.0
1805	6.88629e+02	1.80500e+03	0.00529427	692.5
1806	6.88936e+02	1.80600e+03	0.00529955	693.0
1807	6.89211e+02	1.80700e+03	0.00530216	693.5
1808	6.89513e+02	1.80800e+03	0.00530285	694.0
1809	6.89793e+02	1.80900e+03	0.00530381	694.5
1810	6.90048e+02	1.81000e+03	0.00530554	695.0
1811	6.90308e+02	1.81100e+03	0.00530804	695.5
1812	6.90567e+02	1.81200e+03	0.00530449	696.0
1813	6.90793e+02	1.81300e+03	0.00529929	696.5
1814	6.91013e+02	1.81400e+03	0.00528819	697.0
1815	6.91233e+02	1.81500e+03	0.00527178	697.5
1816	6.91474e+02	1.81600e+03	0.00523394	698.0
1817	6.91711e+02	1.81700e+03	0.00519455	698.5
1818	6.91924e+02	1.81800e+03	0.00515347	699.0
1819	6.92111e+02	1.81900e+03	0.00511216	699.5
1820	6.92295e+02	1.82000e+03	0.00505512	700.0
1821	6.92495e+02	1.82100e+03	0.00501532	700.0
1822	6.92689e+02	1.82200e+03	0.00497989	700.0
1823	6.92870e+02	1.82300e+03	0.00494523	700.0
1824	6.93024e+02	1.82400e+03	0.0049332	700.0
1825	6.93197e+02	1.82500e+03	0.00491681	700.0
1826	6.93376e+02	1.82600e+03	0.0049058	700.0
1827	6.93531e+02	1.82700e+03	0.00489913	700.0
1828	6.93684e+02	1.82800e+03	0.00490194	700.0
1829	6.93831e+02	1.82900e+03	0.00489894	700.0
1830	6.93947e+02	1.83000e+03	0.00489318	700.0
1831	6.94082e+02	1.83100e+03	0.00488634	700.0
1832	6.94197e+02	1.83200e+03	0.00487628	700.0
1833	6.94307e+02	1.83300e+03	0.00486452	700.0
1834	6.94436e+02	1.83400e+03	0.00485461	700.0
1835	6.94561e+02	1.83500e+03	0.00484712	700.0
1836	6.94670e+02	1.83600e+03	0.00484203	700.0
1837	6.94786e+02	1.83700e+03	0.00484448	700.0
1838	6.94902e+02	1.83800e+03	0.00484884	700.0
1839	6.95003e+02	1.83900e+03	0.00485242	700.0
1840	6.95115e+02	1.84000e+03	0.00486564	700.0
1841	6.95216e+02	1.84100e+03	0.00486924	700.0
1842	6.95315e+02	1.84200e+03	0.0048741	700.0
1843	6.95424e+02	1.84300e+03	0.00488183	700.0
1844	6.95519e+02	1.84400e+03	0.0048874	700.0
1845	6.95607e+02	1.84500e+03	0.00490259	700.0
1846	6.95694e+02	1.84600e+03	0.0049231	700.0
1847	6.95773e+02	1.84700e+03	0.00494636	700.0
1848	6.95861e+02	1.84800e+03	0.0049863	700.0
1849	6.95948e+02	1.84900e+03	0.00501603	700.0
1850	6.96030e+02	1.85000e+03	0.00504124	700.0
1851	6.96104e+02	1.85100e+03	0.00506271	700.0
1852	6.96194e+02	1.85200e+03	0.00507145	700.0
1853	6.96264e+02	1.85300e+03	0.00507836	700.0
1854	6.96327e+02	1.85400e+03	0.00508022	700.0
1855	6.96404e+02	1.85500e+03	0.00507901	700.0
1856	6.96480e+02	1.85600e+03	0.00505726	700.0
1857	6.96544e+02	1.85700e+03	0.0050423	700.0
1858	6.96610e+02	1.85800e+03	0.00502856	700.0
1859	6.96673e+02	1.85900e+03	0.00501538	700.0
1860	6.96738e+02	1.86000e+03	0.00499927	700.0
1861	6.96812e+02	1.86100e+03	0.00498667	700.0
1862	6.96876e+02	1.86200e+03	0.00497555	700.0
1863	6.96933e+02	1.86300e+03	0.00496507	700.0
1864	6.96993e+02	1.86400e+03	0.00495479	700.0
1865	6.97054e+02	1.86500e+03	0.00493808	700.0
1866	6.97109e+02	1.86600e+03	0.00491847	700.0
1867	6.97172e+02	1.86700e+03	0.00489841	700.0
1868	6.97227e+02	1.86800e+03	0.00487271	700.0
1869	6.97284e+02	1.86900e+03	0.00485296	700.0
1870	6.97324e+02	1.87000e+03	0.00483599	700.0
1871	6.97381e+02	1.87100e+03	0.00482051	700.0
1872	6.97428e+02	1.87200e+03	0.00480717	700.0
1873	6.97472e+02	1.87300e+03	0.00478767	700.0
1874	6.97518e+02	1.87400e+03	0.00476389	700.0
1875	6.97550e+02	1.87500e+03	0.00473803	700.0
1876	6.97585e+02	1.87600e+03	0.00471043	700.0
1877	6.97629e+02	1.87700e+03	0.00469124	700.0
1878	6.97668e+02	1.87800e+03	0.00468248	700.0
1879	6.97697e+02	1.87900e+03	0.00468157	700.0
1880	6.97732e+02	1.88000e+03	0.00470657	700.0
1881	6.97769e+02	1.88100e+03	0.00473313	700.0
1882	6.97812e+02	1.88200e+03	0.00476624	700.0
1883	6.97852e+02	1.88300e+03	0.00480397	700.0
1884	6.97874e+02	1.88400e+03	0.00487275	700.0
1885	6.97908e+02	1.88500e+03	0.00492335	700.0
1886	6.97951e+02	1.88600e+03	0.00496704	700.0
1887	6.97987e+02	1.88700e+03	0.00500726	700.0
1888	6.98017e+02	1.88800e+03	0.00502754	700.0
1889	6.98043e+02	1.88900e+03	0.0050426	700.0
1890	6.98074e+02	1.89000e+03	0.00505	700.0
1891	6.98103e+02	1.89100e+03	0.00505217	700.0
1892	6.98131e+02	1.89200e+03	0.00502015	700.0
1893	6.98157e+02	1.89300e+03	0.0050005	700.0
1894	6.98188e+02	1.89400e+03	0.00498077	700.0
1895	6.98213e+02	1.89500e+03	0.00495949	700.0
1896	6.98230e+02	1.89600e+03	0.00492988	700.0
1897	6.98261e+02	1.89700e+03	0.00490251	700.0
1898	6.98279e+02	1.89800e+03	0.00487286	700.0
1899	6.98299e+02	1.89900e+03	0.00484189	700.0
1900	6.98332e+02	1.90000e+03	0.00481254	700.0
1901	6.98352e+02	1.90100e+03	0.0047866	700.0
1902	6.98367e+02	1.90200e+03	0.00476428	700.0
1903	6.98388e+02	1.90300e+03	0.00474457	700.0
1904	6.98403e+02	1.90400e+03	0.00473748	700.0
1905	6.98422e+02	1.90500e+03	0.00473174	700.0
1906	6.98451e+02	1.90600e+03	0.00473013	700.0
1907	6.98459e+02	1.90700e+03	0.00473155	700.0
1908	6.98480e+02	1.90800e+03	0.00475238	700.0
1909	6.98494e+02	1.90900e+03	0.0047709	700.0
1910	6.98506e+02	1.91000e+03	0.00479329	700.0
1911	6.98531e+02	1.91100e+03	0.0048184	700.0
1912	6.98536e+02	1.91200e+03	0.00485519	700.0
1913	6.98554e+02	1.91300e+03	0.00488386	700.0
1914	6.98568e+02	1.91400e+03	0.0049062	700.0
1915	6.98586e+02	1.91500e+03	0.00492297	700.0
1916	6.98596e+02	1.91600e+03	0.00492183	700.0
1917	6.98619e+02	1.91700e+03	0.00491755	700.0
1918	6.98635e+02	1.91800e+03	0.00490921	700.0
1919	6.98650e+02	1.91900e+03	0.00489831	700.0
1920	6.98658e+02	1.92000e+03	0.0048646	700.0
1921	6.98673e+02	1.92100e+03	0.0048471	700.0
1922	6.98690e+02	1.92200e+03	0.00483504	700.0
1923	6.98695e+02	1.92300e+03	0.00482529	700.0
1924	6.98716e+02	1.92400e+03	0.0048315	700.0
1925	6.98720e+02	1.92500e+03	0.00483638	700.0
1926	6.98730e+02	1.92600e+03	0.00484639	700.0
1927	6.98742e+02	1.92700e+03	0.00486154	700.0
1928	6.98764e+02	1.92800e+03	0.00490098	700.0
1929	6.98779e+02	1.92900e+03	0.00493779	700.0
1930	6.98785e+02	1.93000e+03	0.0049758	700.0
1931	6.98799e+02	1.93100e+03	0.00501453	700.0
1932	6.98809e+02	1.93200e+03	0.00506601	700.0
1933	6.98810e+02	1.93300e+03	0.00510493	700.0
1934	6.98820e+02	1.93400e+03	0.00513801	700.0
1935	6.98830e+02	1.93500e+03	0.00516792	700.0
1936	6.98843e+02	1.93600e+03	0.0051783	700.0
1937	6.98851e+02	1.93700e+03	0.00519084	700.0
1938	6.98856e+02	1.93800e+03	0.00519955	700.0
1939	6.98871e+02	1.93900e+03	0.00520499	700.0
1940	6.98878e+02	1.94000e+03	0.00519072	700.0
1941	6.98880e+02	1.94100e+03	0.00518086	700.0
1942	6.98885e+02	1.94200e+03	0.00516919	700.0
1943	6.98892e+02	1.94300e+03	0.00515556	700.0
1944	6.98907e+02	1.94400e+03	0.00513148	700.0
1945	6.98911e+02	1.94500e+03	0.00511249	700.0
1946	6.98921e+02	1.94600e+03	0.0050945	700.0
1947	6.98914e+02	1.94700e+03	0.0050767	700.0
1948	6.98931e+02	1.94800e+03	0.00505924	700.0
1949	6.98930e+02	1.94900e+03	0.00504115	700.0
1950	6.98940e+02	1.95000e+03	0.00501963	700.0
1951	6.98940e+02	1.95100e+03	0.00499385	700.0
1952	6.98954e+02	1.95200e+03	0.00495581	700.0
1953	6.98951e+02	1.95300e+03	0.00491735	700.0
1954	6.98961e+02	1.95400e+03	0.00488103	700.0
1955	6.98964e+02	1.95500e+03	0.00484663	700.0
1956	6.98975e+02	1.95600e+03	0.0048029	700.0
1957	6.98982e+02	1.95700e+03	0.00477205	700.0
1958	6.98979e+02	1.95800e+03	0.00474899	700.0
1959	6.98989e+02	1.95900e+03	0.00473072	700.0
1960	6.98996e+02	1.96000e+03	0.00475005	700.0
1961	6.99006e+02	1.96100e+03	0.0047681	700.0
1962	6.98995e+02	1.96200e+03	0.00479045	700.0
1963	6.99007e+02	1.96300e+03	0.00481607	700.0
1964	6.99012e+02	1.96400e+03	0.00486867	700.0
1965	6.99020e+02	1.96500e+03	0.00490207	700.0
1966	6.99023e+02	1.96600e+03	0.0049259	700.0
1967	6.99025e+02	1.96700e+03	0.0049438	700.0
1968	6.99027e+02	1.96800e+03	0.00493834	700.0
1969	6.99031e+02	1.96900e+03	0.00493485	700.0
1970	6.99033e+02	1.97000e+03	0.00492925	700.0
1971	6.99029e+02	1.97100e+03	0.00492328	700.0
1972	6.99035e+02	1.97200e+03	0.00490347	700.0
1973	6.99042e+02	1.97300e+03	0.00489556	700.0
1974	6.99047e+02	1.97400e+03	0.00489002	700.0
1975	6.99042e+02	1.97500e+03	0.00488465	700.0
1976	6.99050e+02	1.97600e+03	0.00488762	700.0
1977	6.99054e+02	1.97700e+03	0.00488147	700.0
1978	6.99054e+02	1.97800e+03	0.0048708	700.0
1979	6.99055e+02	1.97900e+03	0.00485771	700.0
1980	6.99056e+02	1.98000e+03	0.00482984	700.0
1981	6.99060e+02	1.98100e+03	0.0048049	700.0
1982	6.99061e+02	1.98200e+03	0.00477967	700.0
1983	6.99067e+02	1.98300e+03	0.00475413	700.0
1984	6.99078e+02	1.98400e+03	0.00472503	700.0
1985	6.99085e+02	1.98500e+03	0.00470334	700.0
1986	6.99075e+02	1.98600e+03	0.00468602	700.0
1987	6.99074e+02	1.98700e+03	0.00467154	700.0
1988	6.99085e+02	1.98800e+03	0.0046791	700.0
1989	6.99095e+02	1.98900e+03	0.00468562	700.0
1990	6.99090e+02	1.99000e+03	0.00469371	700.0
1991	6.99086e+02	1.99100e+03	0.00470297	700.0
1992	6.99095e+02	1.99200e+03	0.00472499	700.0
1993	6.99097e+02	1.99300e+03	0.00473637	700.0
1994	6.99098e+02	1.99400e+03	0.0047467	700.0
1995	6.99102e+02	1.99500e+03	0.00475785	700.0
1996	6.99105e+02	1.99600e+03	0.00475924	700.0
1997	6.99109e+02	1.99700e+03	0.00476696	700.0
1998	6.99108e+02	1.99800e+03	0.00477783	700.0
1999	6.99114e+02	1.99900e+03	0.00478913	700.0
2000	6.99111e+02	2.00000e+03	0.00480294	700.0
2001	6.99106e+02	2.00100e+03	0.00481531	700.0
2002	6.99121e+02	2.00200e+03	0.00482669	700.0
2003	6.99111e+02	2.00300e+03	0.00483731	700.0
2004	6.99115e+02	2.00400e+03	0.00484547	700.0
2005	6.99126e+02	2.00500e+03	0.00485116	700.0
2006	6.99127e+02	2.00600e+03	0.00485447	700.0
2007	6.99118e+02	2.00700e+03	0.00485623	700.0
2008	6.99126e+02	2.00800e+03	0.00484121	700.0
2009	6.99131e+02	2.00900e+03	0.00482554	700.0
2010	6.99121e+02	2.01000e+03	0.00480866	700.0
2011	6.99129e+02	2.01100e+03	0.00479102	700.0
2012	6.99129e+02	2.01200e+03	0.00476946	700.0
2013	6.99125e+02	2.01300e+03	0.00476208	700.0
2014	6.99132e+02	2.01400e+03	0.00476177	700.0
2015	6.99136e+02	2.01500e+03	0.004765	700.0
2016	6.99130e+02	2.01600e+03	0.00478969	700.0
2017	6.99131e+02	2.01700e+03	0.00480303	700.0
2018	6.99127e+02	2.01800e+03	0.00481484	700.0
2019	6.99139e+02	2.01900e+03	0.00482736	700.0
2020	6.99140e+02	2.02000e+03	0.00484177	700.0
2021	6.99146e+02	2.02100e+03	0.00485683	700.0
2022	6.99151e+02	2.02200e+03	0.004874	700.0
2023	6.99139e+02	2.02300e+03	0.00489189	700.0
2024	6.99141e+02	2.02400e+03	0.0049041	700.0
2025	6.99143e+02	2.02500e+03	0.00491195	700.0
2026	6.99146e+02	2.02600e+03	0.00491542	700.0
2027	6.99144e+02	2.02700e+03	0.00491595	700.0
2028	6.99147e+02	2.02800e+03	0.00490277	700.0
2029	6.99138e+02	2.02900e+03	0.00489779	700.0
2030	6.99142e+02	2.03000e+03	0.00489596	700.0
2031	6.99142e+02	2.03100e+03	0.00489405	700.0
2032	6.99148e+02	2.03200e+03	0.00489091	700.0
2033	6.99143e+02	2.03300e+03	0.00488885	700.0
2034	6.99141e+02	2.03400e+03	0.00488629	700.0
2035	6.99136e+02	2.03500e+03	0.00488295	700.0
2036	6.99141e+02	2.03600e+03	0.00487947	700.0
2037	6.99138e+02	2.03700e+03	0.00487662	700.0
2038	6.99146e+02	2.03800e+03	0.00487647	700.0
2039	6.99130e+02	2.03900e+03	0.0048784	700.0
2040	6.99135e+02	2.04000e+03	0.00488447	700.0
2041	6.99140e+02	2.04100e+03	0.00489217	700.0
2042	6.99133e+02	2.04200e+03	0.00490013	700.0
2043	6.99128e+02	2.04300e+03	0.00490801	700.0
2044	6.99131e+02	2.04400e+03	0.00492376	700.0
2045	6.99133e+02	2.04500e+03	0.00493251	700.0
2046	6.99130e+02	2.04600e+03	0.00493761	700.0
2047	6.99129e+02	2.04700e+03	0.00494067	700.0
2048	6.99133e+02	2.04800e+03	0.00493186	700.0
2049	6.99132e+02	2.04900e+03	0.0049239	700.0
2050	6.99130e+02	2.05000e+03	0.00491399	700.0
2051	6.99135e+02	2.05100e+03	0.00490254	700.0
2052	6.99124e+02	2.05200e+03	0.00488139	700.0
2053	6.99129e+02	2.05300e+03	0.00486557	700.0
2054	6.99129e+02	2.05400e+03	0.0048507	700.0
2055	6.99124e+02	2.05500e+03	0.00483543	700.0
2056	6.99128e+02	2.05600e+03	0.00481557	700.0
2057	6.99125e+02	2.05700e+03	0.00479148	700.0
2058	6.99132e+02	2.05800e+03	0.00476401	700.0
2059	6.99124e+02	2.05900e+03	0.0047352	700.0
2060	6.99125e+02	2.06000e+03	0.00470073	700.0
2061	6.99114e+02	2.06100e+03	0.00467472	700.0
2062	6.99120e+02	2.06200e+03	0.00465652	700.0
2063	6.99124e+02	2.06300e+03	0.00464385	700.0
2064	6.99130e+02	2.06400e+03	0.0046466	700.0
2065	6.99122e+02	2.06500e+03	0.0046467	700.0
2066	6.99119e+02	2.06600e+03	0.00464808	700.0
2067	6.99120e+02	2.06700e+03	0.00465065	700.0
2068	6.99117e+02	2.06800e+03	0.00466515	700.0
2069	6.99111e+02	2.06900e+03	0.00467197	700.0
2070	6.99106e+02	2.07000e+03	0.00467683	700.0
2071	6.99112e+02	2.07100e+03	0.00468118	700.0
2072	6.99110e+02	2.07200e+03	0.00468084	700.0
2073	6.99107e+02	2.07300e+03	0.00468291	700.0
2074	6.99109e+02	2.07400e+03	0.00468782	700.0
2075	6.99111e+02	2.07500e+03	0.00469557	700.0
2076	6.99108e+02	2.07600e+03	0.00470609	700.0
2077	6.99100e+02	2.07700e+03	0.00471423	700.0
2078	6.99103e+02	2.07800e+03	0.00472039	700.0
2079	6.99113e+02	2.07900e+03	0.00472655	700.0
2080	6.99103e+02	2.08000e+03	0.00473331	700.0
2081	6.99100e+02	2.08100e+03	0.00473466	700.0
2082	6.99098e+02	2.08200e+03	0.00473154	700.0
2083	6.99100e+02	2.08300e+03	0.00472572	700.0
2084	6.99107e+02	2.08400e+03	0.0047085	700.0
2085	6.99095e+02	2.08500e+03	0.00469426	700.0
2086	6.99092e+02	2.08600e+03	0.00467965	700.0
2087	6.99092e+02	2.08700e+03	0.0046645	700.0
2088	6.99094e+02	2.08800e+03	0.00464588	700.0
2089	6.99102e+02	2.08900e+03	0.0046318	700.0
2090	6.99106e+02	2.09000e+03	0.00461979	700.0
2091	6.99098e+02	2.09100e+03	0.00460883	700.0
2092	6.99091e+02	2.09200e+03	0.00460497	700.0
2093	6.99086e+02	2.09300e+03	0.00459905	700.0
2094	6.99091e+02	2.09400e+03	0.00459308	700.0
2095	6.99090e+02	2.09500e+03	0.0045872	700.0
2096	6.99089e+02	2.09600e+03	0.00458283	700.0
2097	6.99089e+02	2.09700e+03	0.00457638	700.0
2098	6.99083e+02	2.09800e+03	0.00456899	700.0
2099	6.99086e+02	2.09900e+03	0.00456117	700.0
2100	6.99081e+02	2.10000e+03	0.00455083	700.0
2101	6.99083e+02	2.10100e+03	0.00454449	700.0
2102	6.99081e+02	2.10200e+03	0.00454294	700.0
2103	6.99075e+02	2.10300e+03	0.00454427	700.0
2104	6.99082e+02	2.10400e+03	0.00455793	700.0
2105	6.99088e+02	2.10500e+03	0.00457452	700.0
2106	6.99091e+02	2.10600e+03	0.00459676	700.0
2107	6.99085e+02	2.10700e+03	0.00462312	700.0
2108	6.99084e+02	2.10800e+03	0.0046664	700.0
2109	6.99079e+02	2.10900e+03	0.00469914	700.0
2110	6.99070e+02	2.11000e+03	0.00472851	700.0
2111	6.99073e+02	2.11100e+03	0.00475647	700.0
2112	6.99069e+02	2.11200e+03	0.00477928	700.0
2113	6.99072e+02	2.11300e+03	0.00480374	700.0
2114	6.99070e+02	2.11400e+03	0.00482798	700.0
2115	6.99071e+02	2.11500e+03	0.00485025	700.0
2116	6.99077e+02	2.11600e+03	0.00485844	700.0
2117	6.99077e+02	2.11700e+03	0.00486177	700.0
2118	6.99073e+02	2.11800e+03	0.00485702	700.0
2119	6.99066e+02	2.11900e+03	0.00484769	700.0
2120	6.99061e+02	2.12000e+03	0.00481755	700.0
2121	6.99064e+02	2.12100e+03	0.00479844	700.0
2122	6.99052e+02	2.12200e+03	0.0047836	700.0
2123	6.99052e+02	2.12300e+03	0.00476977	700.0
2124	6.99060e+02	2.12400e+03	0.00475412	700.0
2125	6.99060e+02	2.12500e+03	0.00474085	700.0
2126	6.99051e+02	2.12600e+03	0.00472801	700.0
2127	6.99059e+02	2.12700e+03	0.00471496	700.0
2128	6.99058e+02	2.12800e+03	0.00470483	700.0
2129	6.99062e+02	2.12900e+03	0.00469061	700.0
2130	6.99048e+02	2.13000e+03	0.00467449	700.0
2131	6.99042e+02	2.13100e+03	0.00465746	700.0
2132	6.99049e+02	2.13200e+03	0.00463398	700.0
2133	6.99050e+02	2.13300e+03	0.0046131	700.0
2134	6.99046e+02	2.13400e+03	0.00459289	700.0
2135	6.99054e+02	2.13500e+03	0.00457299	700.0
2136	6.99050e+02	2.13600e+03	0.00455483	700.0
2137	6.99052e+02	2.13700e+03	0.00453905	700.0
2138	6.99051e+02	2.13800e+03	0.00452611	700.0
2139	6.99050e+02	2.13900e+03	0.00451612	700.0
2140	6.99044e+02	2.14000e+03	0.00452155	700.0
2141	6.99038e+02	2.14100e+03	0.00452581	700.0
2142	6.99036e+02	2.14200e+03	0.00453055	700.0
2143	6.99035e+02	2.14300e+03	0.00453568	700.0
2144	6.99039e+02	2.14400e+03	0.00455016	700.0
2145	6.99041e+02	2.14500e+03	0.00455754	700.0
2146	6.99038e+02	2.14600e+03	0.00456589	700.0
2147	6.99045e+02	2.14700e+03	0.00457591	700.0
2148	6.99040e+02	2.14800e+03	0.00458005	700.0
2149	6.99034e+02	2.14900e+03	0.00458686	700.0
2150	6.99031e+02	2.15000e+03	0.00459401	700.0
2151	6.99042e+02	2.15100e+03	0.00460104	700.0
2152	6.99038e+02	2.15200e+03	0.00461112	700.0
2153	6.99030e+02	2.15300e+03	0.00462019	700.0
2154	6.99034e+02	2.15400e+03	0.00462908	700.0
2155	6.99037e+02	2.15500e+03	0.00463794	700.0
2156	6.99037e+02	2.15600e+03	0.00464765	700.0
2157	6.99026e+02	2.15700e+03	0.00465786	700.0
2158	6.99033e+02	2.15800e+03	0.00466925	700.0
2159	6.99034e+02	2.15900e+03	0.00468163	700.0
2160	6.99032e+02	2.16000e+03	0.00469808	700.0
2161	6.99019e+02	2.16100e+03	0.00471457	700.0
2162	6.99036e+02	2.16200e+03	0.00473112	700.0
2163	6.99025e+02	2.16300e+03	0.00474755	700.0
2164	6.99028e+02	2.16400e+03	0.00476575	700.0
2165	6.99024e+02	2.16500e+03	0.00478277	700.0
2166	6.99027e+02	2.16600e+03	0.00480145	700.0
2167	6.99017e+02	2.16700e+03	0.00482081	700.0
2168	6.99024e+02	2.16800e+03	0.00483405	700.0
2169	6.99021e+02	2.16900e+03	0.004846	700.0
2170	6.99023e+02	2.17000e+03	0.00485502	700.0
2171	6.99021e+02	2.17100e+03	0.00486176	700.0
2172	6.99014e+02	2.17200e+03	0.00485865	700.0
2173	6.99016e+02	2.17300e+03	0.0048562	700.0
2174	6.99021e+02	2.17400e+03	0.00485191	700.0
2175	6.99009e+02	2.17500e+03	0.00484597	700.0
2176	6.99006e+02	2.17600e+03	0.00482249	700.0
2177	6.99004e+02	2.17700e+03	0.00479848	700.0
2178	6.99001e+02	2.17800e+03	0.00477206	700.0
2179	6.99011e+02	2.17900e+03	0.00474467	700.0
2180	6.99002e+02	2.18000e+03	0.00470777	700.0
2181	6.99014e+02	2.18100e+03	0.00468249	700.0
2182	6.99011e+02	2.18200e+03	0.00466196	700.0
2183	6.99011e+02	2.18300e+03	0.00464238	700.0
2184	6.99006e+02	2.18400e+03	0.00463392	700.0
2185	6.98999e+02	2.18500e+03	0.00462128	700.0
2186	6.99002e+02	2.18600e+03	0.00460891	700.0
2187	6.98995e+02	2.18700e+03	0.00459731	700.0
2188	6.98998e+02	2.18800e+03	0.00459214	700.0
2189	6.99000e+02	2.18900e+03	0.00458751	700.0
2190	6.98999e+02	2.19000e+03	0.00458493	700.0
2191	6.98995e+02	2.19100e+03	0.00458378	700.0
2192	6.98998e+02	2.19200e+03	0.00458478	700.0
2193	6.98997e+02	2.19300e+03	0.00458097	700.0
2194	6.98991e+02	2.19400e+03	0.004577	700.0
2195	6.98993e+02	2.19500e+03	0.00457341	700.0
2196	6.98994e+02	2.19600e+03	0.00457245	700.0
2197	6.98990e+02	2.19700e+03	0.00458031	700.0
2198	6.98984e+02	2.19800e+03	0.00459391	700.0
2199	6.98986e+02	2.19900e+03	0.0046099	700.0
2200	6.98987e+02	2.20000e+03	0.00463724	700.0
2201	6.98987e+02	2.20100e+03	0.0046546	700.0
2202	6.98983e+02	2.20200e+03	0.00466807	700.0
2203	6.98984e+02	2.20300e+03	0.00467968	700.0
2204	6.98987e+02	2.20400e+03	0.00468257	700.0
2205	6.98979e+02	2.20500e+03	0.00468724	700.0
2206	6.98988e+02	2.20600e+03	0.0046913	700.0
2207	6.98975e+02	2.20700e+03	0.00469486	700.0
2208	6.98979e+02	2.20800e+03	0.00469385	700.0
2209	6.98981e+02	2.20900e+03	0.00469352	700.0
2210	6.98979e+02	2.21000e+03	0.00469015	700.0
2211	6.98981e+02	2.21100e+03	0.00468496	700.0
2212	6.98984e+02	2.21200e+03	0.0046773	700.0
2213	6.98982e+02	2.21300e+03	0.00466915	700.0
2214	6.98980e+02	2.21400e+03	0.00465978	700.0
2215	6.98975e+02	2.21500e+03	0.00464953	700.0
2216	6.98984e+02	2.21600e+03	0.00463152	700.0
2217	6.98972e+02	2.21700e+03	0.00461519	700.0
2218	6.98970e+02	2.21800e+03	0.00459868	700.0
2219	6.98979e+02	2.21900e+03	0.00458186	700.0
2220	6.98969e+02	2.22000e+03	0.00456373	700.0
2221	6.98973e+02	2.22100e+03	0.00455139	700.0
2222	6.98969e+02	2.22200e+03	0.00454503	700.0
2223	6.98982e+02	2.22300e+03	0.00454208	700.0
2224	6.98971e+02	2.22400e+03	0.00454838	700.0
2225	6.98974e+02	2.22500e+03	0.0045471	700.0
2226	6.98972e+02	2.22600e+03	0.00454177	700.0
2227	6.98969e+02	2.22700e+03	0.00453556	700.0
2228	6.98966e+02	2.22800e+03	0.00452834	700.0
2229	6.98969e+02	2.22900e+03	0.00451965	700.0
2230	6.98969e+02	2.23000e+03	0.00450959	700.0
2231	6.98967e+02	2.23100e+03	0.00449865	700.0
2232	6.98965e+02	2.23200e+03	0.00447993	700.0
2233	6.98960e+02	2.23300e+03	0.00446289	700.0
2234	6.98961e+02	2.23400e+03	0.00444493	700.0
2235	6.98963e+02	2.23500e+03	0.00442596	700.0
2236	6.98961e+02	2.23600e+03	0.00440439	700.0
2237	6.98955e+02	2.23700e+03	0.0043882	700.0
2238	6.98949e+02	2.23800e+03	0.00437726	700.0
2239	6.98950e+02	2.23900e+03	0.00437002	700.0
2240	6.98956e+02	2.24000e+03	0.00437625	700.0
2241	6.98954e+02	2.24100e+03	0.00438125	700.0
2242	6.98948e+02	2.24200e+03	0.00438551	700.0
2243	6.98950e+02	2.24300e+03	0.00438928	700.0
2244	6.98953e+02	2.24400e+03	0.00440277	700.0
2245	6.98951e+02	2.24500e+03	0.00440774	700.0
2246	6.98953e+02	2.24600e+03	0.00440968	700.0
2247	6.98947e+02	2.24700e+03	0.00441049	700.0
2248	6.98949e+02	2.24800e+03	0.00440327	700.0
2249	6.98946e+02	2.24900e+03	0.00440125	700.0
2250	6.98946e+02	2.25000e+03	0.00440095	700.0
2251	6.98942e+02	2.25100e+03	0.00440143	700.0
2252	6.98940e+02	2.25200e+03	0.00440614	700.0
2253	6.98937e+02	2.25300e+03	0.00441053	700.0
2254	6.98943e+02	2.25400e+03	0.00441501	700.0
2255	6.98946e+02	2.25500e+03	0.00441944	700.0
2256	6.98944e+02	2.25600e+03	0.00442527	700.0
2257	6.98946e+02	2.25700e+03	0.0044279	700.0
2258	6.98937e+02	2.25800e+03	0.00442884	700.0
2259	6.98938e+02	2.25900e+03	0.00442887	700.0
2260	6.98940e+02	2.26000e+03	0.00442276	700.0
2261	6.98941e+02	2.26100e+03	0.00441973	700.0
2262	6.98943e+02	2.26200e+03	0.00442055	700.0
2263	6.98932e+02	2.26300e+03	0.00442445	700.0
2264	6.98930e+02	2.26400e+03	0.00443156	700.0
2265	6.98936e+02	2.26500e+03	0.00443877	700.0
2266	6.98930e+02	2.26600e+03	0.00444606	700.0
2267	6.98932e+02	2.26700e+03	0.00445328	700.0
2268	6.98927e+02	2.26800e+03	0.004465	700.0
2269	6.98938e+02	2.26900e+03	0.0044722	700.0
2270	6.98929e+02	2.27000e+03	0.00447766	700.0
2271	6.98926e+02	2.27100e+03	0.00448236	700.0
2272	6.98929e+02	2.27200e+03	0.00448142	700.0
2273	6.98928e+02	2.27300e+03	0.00448264	700.0
2274	6.98933e+02	2.27400e+03	0.00448386	700.0
2275	6.98929e+02	2.27500e+03	0.00448481	700.0
2276	6.98921e+02	2.27600e+03	0.00448361	700.0
2277	6.98919e+02	2.27700e+03	0.0044821	700.0
2278	6.98924e+02	2.27800e+03	0.00447953	700.0
2279	6.98925e+02	2.27900e+03	0.00447611	700.0
2280	6.98923e+02	2.28000e+03	0.00446837	700.0
2281	6.98922e+02	2.28100e+03	0.00446089	700.0
2282	6.98930e+02	2.28200e+03	0.00445282	700.0
2283	6.98925e+02	2.28300e+03	0.00444432	700.0
2284	6.98922e+02	2.28400e+03	0.0044329	700.0
2285	6.98915e+02	2.28500e+03	0.00442388	700.0
2286	6.98911e+02	2.28600e+03	0.00441561	700.0
2287	6.98926e+02	2.28700e+03	0.00440755	700.0
2288	6.98917e+02	2.28800e+03	0.00440547	700.0
2289	6.98910e+02	2.28900e+03	0.00440683	700.0
2290	6.98914e+02	2.29000e+03	0.00441324	700.0
2291	6.98911e+02	2.29100e+03	0.00442307	700.0
2292	6.98908e+02	2.29200e+03	0.00444233	700.0
2293	6.98905e+02	2.29300e+03	0.00445389	700.0
2294	6.98911e+02	2.29400e+03	0.00445843	700.0
2295	6.98907e+02	2.29500e+03	0.00445825	700.0
2296	6.98911e+02	2.29600e+03	0.00445114	700.0
2297	6.98905e+02	2.29700e+03	0.00444068	700.0
2298	6.98902e+02	2.29800e+03	0.00442512	700.0
2299	6.98908e+02	2.29900e+03	0.00440713	700.0
2300	6.98904e+02	2.30000e+03	0.00437668	700.0
2301	6.98899e+02	2.30100e+03	0.00435556	700.0
2302	6.98903e+02	2.30200e+03	0.00433776	700.0
2303	6.98900e+02	2.30300e+03	0.00432146	700.0
2304	6.98906e+02	2.30400e+03	0.00431273	700.0
2305	6.98910e+02	2.30500e+03	0.00430352	700.0
2306	6.98904e+02	2.30600e+03	0.00429593	700.0
2307	6.98902e+02	2.30700e+03	0.00428965	700.0
2308	6.98894e+02	2.30800e+03	0.00429592	700.0
2309	6.98899e+02	2.30900e+03	0.00430404	700.0
2310	6.98903e+02	2.31000e+03	0.00431554	700.0
2311	6.98889e+02	2.31100e+03	0.00432837	700.0
2312	6.98903e+02	2.31200e+03	0.00435148	700.0
2313	6.98902e+02	2.31300e+03	0.00437009	700.0
2314	6.98897e+02	2.31400e+03	0.00438962	700.0
2315	6.98897e+02	2.31500e+03	0.0044101	700.0
2316	6.98897e+02	2.31600e+03	0.00443126	700.0
2317	6.98894e+02	2.31700e+03	0.00445074	700.0
2318	6.98892e+02	2.31800e+03	0.0044658	700.0
2319	6.98889e+02	2.31900e+03	0.00447627	700.0
2320	6.98893e+02	2.32000e+03	0.0044721	700.0
2321	6.98896e+02	2.32100e+03	0.0044646	700.0
2322	6.98890e+02	2.32200e+03	0.00445344	700.0
2323	6.98888e+02	2.32300e+03	0.00443997	700.0
2324	6.98892e+02	2.32400e+03	0.00440511	700.0
2325	6.98884e+02	2.32500e+03	0.00438138	700.0
2326	6.98889e+02	2.32600e+03	0.00435654	700.0
2327	6.98887e+02	2.32700e+03	0.00432915	700.0
2328	6.98879e+02	2.32800e+03	0.00430455	700.0
2329	6.98889e+02	2.32900e+03	0.00428103	700.0
2330	6.98886e+02	2.33000e+03	0.00425962	700.0
2331	6.98892e+02	2.33100e+03	0.00423982	700.0
2332	6.98886e+02	2.33200e+03	0.00422542	700.0
2333	6.98887e+02	2.33300e+03	0.00421242	700.0
2334	6.98883e+02	2.33400e+03	0.00420131	700.0
2335	6.98882e+02	2.33500e+03	0.00419134	700.0
2336	6.98879e+02	2.33600e+03	0.00418923	700.0
2337	6.98880e+02	2.33700e+03	0.00418383	700.0
2338	6.98880e+02	2.33800e+03	0.00418162	700.0
2339	6.98873e+02	2.33900e+03	0.00418259	700.0
2340	6.98873e+02	2.34000e+03	0.00418707	700.0
2341	6.98874e+02	2.34100e+03	0.00419496	700.0
2342	6.98879e+02	2.34200e+03	0.00420639	700.0
2343	6.98878e+02	2.34300e+03	0.00421854	700.0
2344	6.98868e+02	2.34400e+03	0.00423347	700.0
2345	6.98875e+02	2.34500e+03	0.00424012	700.0
2346	6.98877e+02	2.34600e+03	0.00424418	700.0
2347	6.98870e+02	2.34700e+03	0.00424756	700.0
2348	6.98875e+02	2.34800e+03	0.00424322	700.0
2349	6.98867e+02	2.34900e+03	0.00424462	700.0
2350	6.98863e+02	2.35000e+03	0.00424804	700.0
2351	6.98872e+02	2.35100e+03	0.00425282	700.0
2352	6.98878e+02	2.35200e+03	0.00426677	700.0
2353	6.98866e+02	2.35300e+03	0.0042797	700.0
2354	6.98868e+02	2.35400e+03	0.00429088	700.0
2355	6.98875e+02	2.35500e+03	0.00430057	700.0
2356	6.98874e+02	2.35600e+03	0.00431626	700.0
2357	6.98870e+02	2.35700e+03	0.00432772	700.0
2358	6.98860e+02	2.35800e+03	0.00433322	700.0
2359	6.98865e+02	2.35900e+03	0.00433345	700.0
2360	6.98864e+02	2.36000e+03	0.00431842	700.0
2361	6.98866e+02	2.36100e+03	0.00430464	700.0
2362	6.98866e+02	2.36200e+03	0.00428755	700.0
2363	6.98865e+02	2.36300e+03	0.00426609	700.0
2364	6.98859e+02	2.36400e+03	0.004223	700.0
2365	6.98861e+02	2.36500e+03	0.00418944	700.0
2366	6.98853e+02	2.36600e+03	0.00415868	700.0
2367	6.98860e+02	2.36700e+03	0.00412902	700.0
2368	6.98865e+02	2.36800e+03	0.00410147	700.0
2369	6.98868e+02	2.36900e+03	0.00408074	700.0
2370	6.98869e+02	2.37000e+03	0.00406571	700.0
2371	6.98872e+02	2.37100e+03	0.00405425	700.0
2372	6.98864e+02	2.37200e+03	0.00406483	700.0
2373	6.98859e+02	2.37300e+03	0.00407064	700.0
2374	6.98861e+02	2.37400e+03	0.00407816	700.0
2375	6.98846e+02	2.37500e+03	0.00408754	700.0
2376	6.98855e+02	2.37600e+03	0.00410682	700.0
2377	6.98848e+02	2.37700e+03	0.0041181	700.0
2378	6.98854e+02	2.37800e+03	0.00412555	700.0
2379	6.98856e+02	2.37900e+03	0.00413079	700.0
2380	6.98852e+02	2.38000e+03	0.00412291	700.0
2381	6.98852e+02	2.38100e+03	0.00411392	700.0
2382	6.98857e+02	2.38200e+03	0.00410136	700.0
2383	6.98857e+02	2.38300e+03	0.00408623	700.0
2384	6.98851e+02	2.38400e+03	0.00405478	700.0
2385	6.98859e+02	2.38500e+03	0.00403039	700.0
2386	6.98857e+02	2.38600e+03	0.00400834	700.0
2387	6.98856e+02	2.38700e+03	0.0039887	700.0
2388	6.98862e+02	2.38800e+03	0.00397932	700.0
2389	6.98857e+02	2.38900e+03	0.00397757	700.0
2390	6.98856e+02	2.39000e+03	0.0039834	700.0
2391	6.98861e+02	2.39100e+03	0.00399407	700.0
2392	6.98857e+02	2.39200e+03	0.00403327	700.0
2393	6.98855e+02	2.39300e+03	0.00405924	700.0
2394	6.98852e+02	2.39400e+03	0.00407818	700.0
2395	6.98852e+02	2.39500e+03	0.00409276	700.0
2396	6.98857e+02	2.39600e+03	0.00410366	700.0
2397	6.98860e+02	2.39700e+03	0.00410999	700.0
2398	6.98850e+02	2.39800e+03	0.00411569	700.0
2399	6.98850e+02	2.39900e+03	0.00412225	700.0
2400	6.98845e+02	2.40000e+03	0.00411391	700.0
2401	6.98841e+02	2.40100e+03	0.00411115	700.0
2402	6.98843e+02	2.40200e+03	0.00410333	700.0
2403	6.98843e+02	2.40300e+03	0.00409018	700.0
2404	6.98855e+02	2.40400e+03	0.00406536	700.0
2405	6.98844e+02	2.40500e+03	0.00403575	700.0
2406	6.98841e+02	2.40600e+03	0.00400363	700.0
2407	6.98848e+02	2.40700e+03	0.0039709	700.0
2408	6.98847e+02	2.40800e+03	0.00392676	700.0
2409	6.98843e+02	2.40900e+03	0.00389984	700.0
2410	6.98844e+02	2.41000e+03	0.00387929	700.0
2411	6.98843e+02	2.41100e+03	0.00386081	700.0
2412	6.98845e+02	2.41200e+03	0.00386386	700.0
2413	6.98851e+02	2.41300e+03	0.00385855	700.0
2414	6.98840e+02	2.41400e+03	0.00385564	700.0
2415	6.98841e+02	2.41500e+03	0.00385581	700.0
2416	6.98845e+02	2.41600e+03	0.00386933	700.0
2417	6.98845e+02	2.41700e+03	0.00388871	700.0
2418	6.98847e+02	2.41800e+03	0.00391444	700.0
2419	6.98837e+02	2.41900e+03	0.003943	700.0
2420	6.98845e+02	2.42000e+03	0.00398978	700.0
2421	6.98839e+02	2.42100e+03	0.00402366	700.0
2422	6.98831e+02	2.42200e+03	0.00405202	700.0
2423	6.98831e+02	2.42300e+03	0.0040774	700.0
2424	6.98831e+02	2.42400e+03	0.00408756	700.0
2425	6.98834e+02	2.42500e+03	0.00409591	700.0
2426	6.98832e+02	2.42600e+03	0.0040997	700.0
2427	6.98837e+02	2.42700e+03	0.00410027	700.0
2428	6.98834e+02	2.42800e+03	0.00408125	700.0
2429	6.98838e+02	2.42900e+03	0.00407159	700.0
2430	6.98841e+02	2.43000e+03	0.00406431	700.0
2431	6.98834e+02	2.43100e+03	0.00405835	700.0
2432	6.98828e+02	2.43200e+03	0.0040638	700.0
2433	6.98837e+02	2.43300e+03	0.00407457	700.0
2434	6.98840e+02	2.43400e+03	0.00408856	700.0
2435	6.98834e+02	2.43500e+03	0.00410415	700.0
2436	6.98834e+02	2.43600e+03	0.00413051	700.0
2437	6.98830e+02	2.43700e+03	0.00413858	700.0
2438	6.98831e+02	2.43800e+03	0.00413715	700.0
2439	6.98832e+02	2.43900e+03	0.00413185	700.0
2440	6.98835e+02	2.44000e+03	0.0041025	700.0
2441	6.98834e+02	2.44100e+03	0.00408283	700.0
2442	6.98833e+02	2.44200e+03	0.00406727	700.0
2443	6.98840e+02	2.44300e+03	0.0040543	700.0
2444	6.98830e+02	2.44400e+03	0.00404343	700.0
2445	6.98829e+02	2.44500e+03	0.00403972	700.0
2446	6.98826e+02	2.44600e+03	0.00404131	700.0
2447	6.98831e+02	2.44700e+03	0.00404608	700.0
2448	6.98827e+02	2.44800e+03	0.00407531	700.0
2449	6.98817e+02	2.44900e+03	0.00409767	700.0
2450	6.98827e+02	2.45000e+03	0.00412048	700.0
2451	6.98821e+02	2.45100e+03	0.0041444	700.0
2452	6.98824e+02	2.45200e+03	0.00416818	700.0
2453	6.98826e+02	2.45300e+03	0.00418167	700.0
2454	6.98819e+02	2.45400e+03	0.0041906	700.0
2455	6.98818e+02	2.45500e+03	0.00419734	700.0
2456	6.98824e+02	2.45600e+03	0.00418659	700.0
2457	6.98830e+02	2.45700e+03	0.0041878	700.0
2458	6.98818e+02	2.45800e+03	0.00419336	700.0
2459	6.98828e+02	2.45900e+03	0.00419946	700.0
2460	6.98828e+02	2.46000e+03	0.00420805	700.0
2461	6.98821e+02	2.46100e+03	0.00421407	700.0
2462	6.98832e+02	2.46200e+03	0.00421529	700.0
2463	6.98819e+02	2.46300e+03	0.00421259	700.0
2464	6.98821e+02	2.46400e+03	0.00420532	700.0
2465	6.98821e+02	2.46500e+03	0.00420097	700.0
2466	6.98828e+02	2.46600e+03	0.00419843	700.0
2467	6.98817e+02	2.46700e+03	0.0041956	700.0
2468	6.98813e+02	2.46800e+03	0.00418463	700.0
2469	6.98818e+02	2.46900e+03	0.00417559	700.0
2470	6.98824e+02	2.47000e+03	0.00416605	700.0
2471	6.98818e+02	2.47100e+03	0.00415581	700.0
2472	6.98818e+02	2.47200e+03	0.00414423	700.0
2473	6.98816e+02	2.47300e+03	0.00413407	700.0
2474	6.98825e+02	2.47400e+03	0.00412463	700.0
2475	6.98821e+02	2.47500e+03	0.00411562	700.0
2476	6.98813e+02	2.47600e+03	0.00410916	700.0
2477	6.98822e+02	2.47700e+03	0.00410303	700.0
2478	6.98823e+02	2.47800e+03	0.00409773	700.0
2479	6.98823e+02	2.47900e+03	0.00409304	700.0
2480	6.98814e+02	2.48000e+03	0.00409213	700.0
2481	6.98824e+02	2.48100e+03	0.00409007	700.0
2482	6.98824e+02	2.48200e+03	0.0040882	700.0
2483	6.98819e+02	2.48300e+03	0.00408664	700.0
2484	6.98812e+02	2.48400e+03	0.00408678	700.0
2485	6.98817e+02	2.48500e+03	0.00408668	700.0
2486	6.98820e+02	2.48600e+03	0.00408732	700.0
2487	6.98827e+02	2.48700e+03	0.00408869	700.0
2488	6.98823e+02	2.48800e+03	0.00409305	700.0
2489	6.98821e+02	2.48900e+03	0.00409821	700.0
2490	6.98826e+02	2.49000e+03	0.00410657	700.0
2491	6.98818e+02	2.49100e+03	0.0041181	700.0
2492	6.98811e+02	2.49200e+03	0.00413704	700.0
2493	6.98823e+02	2.49300e+03	0.00415237	700.0
2494	6.98819e+02	2.49400e+03	0.00416579	700.0
2495	6.98814e+02	2.49500e+03	0.004178	700.0
2496	6.98809e+02	2.49600e+03	0.00418718	700.0
2497	6.98820e+02	2.49700e+03	0.00419073	700.0
2498	6.98821e+02	2.49800e+03	0.00418952	700.0
2499	6.98820e+02	2.49900e+03	0.00418532	700.0
2500	6.98816e+02	2.50000e+03	0.00416302	700.0
2501	6.98809e+02	2.50100e+03	0.0041459	700.0
2502	6.98810e+02	2.50200e+03	0.00412806	700.0
2503	6.98816e+02	2.50300e+03	0.00410902	700.0
2504	6.98810e+02	2.50400e+03	0.00408206	700.0
2505	6.98804e+02	2.50500e+03	0.0040584	700.0
2506	6.98810e+02	2.50600e+03	0.00403463	700.0
2507	6.98810e+02	2.50700e+03	0.00401033	700.0
2508	6.98818e+02	2.50800e+03	0.00399094	700.0
2509	6.98813e+02	2.50900e+03	0.00397582	700.0
2510	6.98814e+02	2.51000e+03	0.00396344	700.0
2511	6.98805e+02	2.51100e+03	0.00395268	700.0
2512	6.98811e+02	2.51200e+03	0.0039564	700.0
2513	6.98808e+02	2.51300e+03	0.00395835	700.0
2514	6.98809e+02	2.51400e+03	0.00396306	700.0
2515	6.98804e+02	2.51500e+03	0.00397027	700.0
2516	6.98814e+02	2.51600e+03	0.00399225	700.0
2517	6.98810e+02	2.51700e+03	0.00401185	700.0
2518	6.98808e+02	2.51800e+03	0.00403217	700.0
2519	6.98816e+02	2.51900e+03	0.00405195	700.0
2520	6.98810e+02	2.52000e+03	0.00407313	700.0
2521	6.98815e+02	2.52100e+03	0.00408806	700.0
2522	6.98814e+02	2.52200e+03	0.00410047	700.0
2523	6.98806e+02	2.52300e+03	0.00411216	700.0
2524	6.98811e+02	2.52400e+03	0.00411606	700.0
2525	6.98818e+02	2.52500e+03	0.00412978	700.0
2526	6.98818e+02	2.52600e+03	0.00414647	700.0
2527	6.98816e+02	2.52700e+03	0.00416273	700.0
2528	6.98816e+02	2.52800e+03	0.00418098	700.0
2529	6.98811e+02	2.52900e+03	0.00419162	700.0
2530	6.98809e+02	2.53000e+03	0.00419726	700.0
2531	6.98810e+02	2.53100e+03	0.00419981	700.0
2532	6.98802e+02	2.53200e+03	0.00419047	700.0
2533	6.98813e+02	2.53300e+03	0.00418793	700.0
2534	6.98812e+02	2.53400e+03	0.00418551	700.0
2535	6.98808e+02	2.53500e+03	0.00418173	700.0
2536	6.98811e+02	2.53600e+03	0.00416982	700.0
2537	6.98806e+02	2.53700e+03	0.00415331	700.0
2538	6.98812e+02	2.53800e+03	0.00413063	700.0
2539	6.98805e+02	2.53900e+03	0.00410367	700.0
2540	6.98806e+02	2.54000e+03	0.00406194	700.0
2541	6.98817e+02	2.54100e+03	0.00402893	700.0
2542	6.98816e+02	2.54200e+03	0.00399991	700.0
2543	6.98803e+02	2.54300e+03	0.00397317	700.0
2544	6.98812e+02	2.54400e+03	0.00395357	700.0
2545	6.98801e+02	2.54500e+03	0.0039397	700.0
2546	6.98817e+02	2.54600e+03	0.00393169	700.0
2547	6.98813e+02	2.54700e+03	0.00392771	700.0
2548	6.98809e+02	2.54800e+03	0.00395171	700.0
2549	6.98807e+02	2.54900e+03	0.00396918	700.0
2550	6.98804e+02	2.55000e+03	0.00398557	700.0
2551	6.98800e+02	2.55100e+03	0.00400179	700.0
2552	6.98799e+02	2.55200e+03	0.00402343	700.0
2553	6.98805e+02	2.55300e+03	0.00403455	700.0
2554	6.98806e+02	2.55400e+03	0.00404155	700.0
2555	6.98808e+02	2.55500e+03	0.00404797	700.0
2556	6.98801e+02	2.55600e+03	0.00404363	700.0
2557	6.98810e+02	2.55700e+03	0.00404636	700.0
2558	6.98807e+02	2.55800e+03	0.00404882	700.0
2559	6.98805e+02	2.55900e+03	0.00405018	700.0
2560	6.98797e+02	2.56000e+03	0.00405383	700.0
2561	6.98795e+02	2.56100e+03	0.00405302	700.0
2562	6.98803e+02	2.56200e+03	0.00404735	700.0
2563	6.98806e+02	2.56300e+03	0.00403808	700.0
2564	6.98793e+02	2.56400e+03	0.0040214	700.0
2565	6.98802e+02	2.56500e+03	0.00401043	700.0
2566	6.98793e+02	2.56600e+03	0.00400399	700.0
2567	6.98803e+02	2.56700e+03	0.00400178	700.0
2568	6.98789e+02	2.56800e+03	0.00401007	700.0
2569	6.98801e+02	2.56900e+03	0.00402008	700.0
2570	6.98799e+02	2.57000e+03	0.00403239	700.0
2571	6.98805e+02	2.57100e+03	0.00404617	700.0
2572	6.98799e+02	2.57200e+03	0.00407577	700.0
2573	6.98792e+02	2.57300e+03	0.00409587	700.0
2574	6.98808e+02	2.57400e+03	0.00411452	700.0
2575	6.98799e+02	2.57500e+03	0.00413458	700.0
2576	6.98797e+02	2.57600e+03	0.00415555	700.0
2577	6.98797e+02	2.57700e+03	0.00417729	700.0
2578	6.98800e+02	2.57800e+03	0.00419752	700.0
2579	6.98792e+02	2.57900e+03	0.00421636	700.0
2580	6.98796e+02	2.58000e+03	0.00423288	700.0
2581	6.98803e+02	2.58100e+03	0.00424322	700.0
2582	6.98797e+02	2.58200e+03	0.00424848	700.0
2583	6.98803e+02	2.58300e+03	0.00425056	700.0
2584	6.98800e+02	2.58400e+03	0.00423319	700.0
2585	6.98798e+02	2.58500e+03	0.00422097	700.0
2586	6.98802e+02	2.58600e+03	0.00420823	700.0
2587	6.98796e+02	2.58700e+03	0.00419465	700.0
2588	6.98802e+02	2.58800e+03	0.00417569	700.0
2589	6.98794e+02	2.58900e+03	0.0041632	700.0
2590	6.98795e+02	2.59000e+03	0.00415377	700.0
2591	6.98794e+02	2.59100e+03	0.00414592	700.0
2592	6.98799e+02	2.59200e+03	0.00414807	700.0
2593	6.98794e+02	2.59300e+03	0.00414547	700.0
2594	6.98789e+02	2.59400e+03	0.0041394	700.0
2595	6.98790e+02	2.59500e+03	0.00413165	700.0
2596	6.98790e+02	2.59600e+03	0.00411658	700.0
2597	6.98792e+02	2.59700e+03	0.00409603	700.0
2598	6.98794e+02	2.59800e+03	0.00407287	700.0
2599	6.98799e+02	2.59900e+03	0.00404846	700.0
2600	6.98791e+02	2.60000e+03	0.00400772	700.0
2601	6.98801e+02	2.60100e+03	0.00397689	700.0
2602	6.98787e+02	2.60200e+03	0.0039496	700.0
2603	6.98792e+02	2.60300e+03	0.0039239	700.0
2604	6.98789e+02	2.60400e+03	0.00390727	700.0
2605	6.98789e+02	2.60500e+03	0.00389292	700.0
2606	6.98786e+02	2.60600e+03	0.00388601	700.0
2607	6.98786e+02	2.60700e+03	0.0038847	700.0
2608	6.98793e+02	2.60800e+03	0.0039005	700.0
2609	6.98788e+02	2.60900e+03	0.00391069	700.0
2610	6.98791e+02	2.61000e+03	0.00392073	700.0
2611	6.98784e+02	2.61100e+03	0.00393123	700.0
2612	6.98788e+02	2.61200e+03	0.00394111	700.0
2613	6.98795e+02	2.61300e+03	0.00394188	700.0
2614	6.98787e+02	2.61400e+03	0.00393959	700.0
2615	6.98785e+02	2.61500e+03	0.00393616	700.0
2616	6.98794e+02	2.61600e+03	0.0039217	700.0
2617	6.98782e+02	2.61700e+03	0.00392114	700.0
2618	6.98781e+02	2.61800e+03	0.00392936	700.0
2619	6.98782e+02	2.61900e+03	0.00394213	700.0
2620	6.98785e+02	2.62000e+03	0.00396976	700.0
2621	6.98782e+02	2.62100e+03	0.00398976	700.0
2622	6.98791e+02	2.62200e+03	0.00400697	700.0
2623	6.98785e+02	2.62300e+03	0.00402267	700.0
2624	6.98776e+02	2.62400e+03	0.00403607	700.0
2625	6.98777e+02	2.62500e+03	0.00404443	700.0
2626	6.98775e+02	2.62600e+03	0.00404949	700.0
2627	6.98779e+02	2.62700e+03	0.00405283	700.0
2628	6.98784e+02	2.62800e+03	0.00404427	700.0
2629	6.98783e+02	2.62900e+03	0.00404333	700.0
2630	6.98774e+02	2.63000e+03	0.00404499	700.0
2631	6.98780e+02	2.63100e+03	0.0040478	700.0
2632	6.98781e+02	2.63200e+03	0.00405664	700.0
2633	6.98784e+02	2.63300e+03	0.00406489	700.0
2634	6.98783e+02	2.63400e+03	0.00407339	700.0
2635	6.98788e+02	2.63500e+03	0.00408202	700.0
2636	6.98786e+02	2.63600e+03	0.0040933	700.0
2637	6.98790e+02	2.63700e+03	0.00410104	700.0
2638	6.98779e+02	2.63800e+03	0.00410758	700.0
2639	6.98785e+02	2.63900e+03	0.00411356	700.0
2640	6.98789e+02	2.64000e+03	0.00411376	700.0
2641	6.98778e+02	2.64100e+03	0.00411502	700.0
2642	6.98782e+02	2.64200e+03	0.00411467	700.0
2643	6.98787e+02	2.64300e+03	0.00411279	700.0
2644	6.98790e+02	2.64400e+03	0.00410218	700.0
2645	6.98776e+02	2.64500e+03	0.00408972	700.0
2646	6.98793e+02	2.64600e+03	0.00407382	700.0
2647	6.98787e+02	2.64700e+03	0.00405545	700.0
2648	6.98780e+02	2.64800e+03	0.00402282	700.0
2649	6.98783e+02	2.64900e+03	0.00399521	700.0
2650	6.98780e+02	2.65000e+03	0.00396828	700.0
2651	6.98786e+02	2.65100e+03	0.00394147	700.0
2652	6.98788e+02	2.65200e+03	0.00391636	700.0
2653	6.98785e+02	2.65300e+03	0.00389717	700.0
2654	6.98785e+02	2.65400e+03	0.00388188	700.0
2655	6.98787e+02	2.65500e+03	0.00386775	700.0
2656	6.98795e+02	2.65600e+03	0.00386536	700.0
2657	6.98797e+02	2.65700e+03	0.00386052	700.0
2658	6.98790e+02	2.65800e+03	0.00386268	700.0
2659	6.98791e+02	2.65900e+03	0.00387154	700.0
2660	6.98793e+02	2.66000e+03	0.00389595	700.0
2661	6.98792e+02	2.66100e+03	0.0039197	700.0
2662	6.98785e+02	2.66200e+03	0.00394381	700.0
2663	6.98793e+02	2.66300e+03	0.00396804	700.0
2664	6.98798e+02	2.66400e+03	0.0040028	700.0
2665	6.98779e+02	2.66500e+03	0.0040238	700.0
2666	6.98780e+02	2.66600e+03	0.00403778	700.0
2667	6.98780e+02	2.66700e+03	0.00404801	700.0
2668	6.98791e+02	2.66800e+03	0.0040341	700.0
2669	6.98782e+02	2.66900e+03	0.0040223	700.0
2670	6.98790e+02	2.67000e+03	0.00400583	700.0
2671	6.98794e+02	2.67100e+03	0.00398703	700.0
2672	6.98798e+02	2.67200e+03	0.00395571	700.0
2673	6.98790e+02	2.67300e+03	0.00393436	700.0
2674	6.98794e+02	2.67400e+03	0.00391682	700.0
2675	6.98786e+02	2.67500e+03	0.0039011	700.0
2676	6.98784e+02	2.67600e+03	0.00389736	700.0
2677	6.98789e+02	2.67700e+03	0.00389779	700.0
2678	6.98790e+02	2.67800e+03	0.00390599	700.0
2679	6.98787e+02	2.67900e+03	0.00391869	700.0
2680	6.98791e+02	2.68000e+03	0.00395188	700.0
2681	6.98786e+02	2.68100e+03	0.00397799	700.0
2682	6.98790e+02	2.68200e+03	0.0040031	700.0
2683	6.98792e+02	2.68300e+03	0.00402803	700.0
2684	6.98784e+02	2.68400e+03	0.00405563	700.0
2685	6.98788e+02	2.68500e+03	0.00407597	700.0
2686	6.98791e+02	2.68600e+03	0.0040921	700.0
2687	6.98786e+02	2.68700e+03	0.00410588	700.0
2688	6.98780e+02	2.68800e+03	0.0041036	700.0
2689	6.98789e+02	2.68900e+03	0.00410476	700.0
2690	6.98791e+02	2.69000e+03	0.00410453	700.0
2691	6.98791e+02	2.69100e+03	0.00410344	700.0
2692	6.98783e+02	2.69200e+03	0.00409937	700.0
2693	6.98780e+02	2.69300e+03	0.00410238	700.0
2694	6.98786e+02	2.69400e+03	0.00411006	700.0
2695	6.98789e+02	2.69500e+03	0.00412026	700.0
2696	6.98782e+02	2.69600e+03	0.0041375	700.0
2697	6.98784e+02	2.69700e+03	0.00414454	700.0
2698	6.98784e+02	2.69800e+03	0.00414534	700.0
2699	6.98789e+02	2.69900e+03	0.00414393	700.0
2700	6.98780e+02	2.70000e+03	0.00413448	700.0
2701	6.98782e+02	2.70100e+03	0.00412821	700.0
2702	6.98789e+02	2.70200e+03	0.0041221	700.0
2703	6.98782e+02	2.70300e+03	0.00411496	700.0
2704	6.98784e+02	2.70400e+03	0.00409724	700.0
2705	6.98776e+02	2.70500e+03	0.00407797	700.0
2706	6.98784e+02	2.70600e+03	0.00405704	700.0
2707	6.98780e+02	2.70700e+03	0.00403593	700.0
2708	6.98781e+02	2.70800e+03	0.00400781	700.0
2709	6.98784e+02	2.70900e+03	0.00398575	700.0
2710	6.98785e+02	2.71000e+03	0.00396602	700.0
2711	6.98785e+02	2.71100e+03	0.00394775	700.0
2712	6.98780e+02	2.71200e+03	0.00393039	700.0
2713	6.98778e+02	2.71300e+03	0.00391386	700.0
2714	6.98784e+02	2.71400e+03	0.00389811	700.0
2715	6.98797e+02	2.71500e+03	0.00388075	700.0
2716	6.98776e+02	2.71600e+03	0.00386216	700.0
2717	6.98776e+02	2.71700e+03	0.00384395	700.0
2718	6.98781e+02	2.71800e+03	0.00382667	700.0
2719	6.98785e+02	2.71900e+03	0.00381045	700.0
2720	6.98783e+02	2.72000e+03	0.00379499	700.0
