Index	Ts	t	Weight	Tr
[#]	[°C]	[s]	[mg]	[°C]
681	1.30250e+02	6.81000e+02	2.99978	130.5
682	1.30738e+02	6.82000e+02	2.99972	131.0
683	1.31270e+02	6.83000e+02	2.99966	131.5
684	1.31776e+02	6.84000e+02	2.99957	132.0
685	1.32285e+02	6.85000e+02	2.99951	132.5
686	1.32792e+02	6.86000e+02	2.99944	133.0
687	1.33304e+02	6.87000e+02	2.99938	133.5
688	1.33812e+02	6.88000e+02	2.99934	134.0
689	1.34314e+02	6.89000e+02	2.99928	134.5
690	1.34823e+02	6.90000e+02	2.99923	135.0
691	1.35314e+02	6.91000e+02	2.99918	135.5
692	1.35831e+02	6.92000e+02	2.99913	136.0
693	1.36337e+02	6.93000e+02	2.9991	136.5
694	1.36852e+02	6.94000e+02	2.99907	137.0
695	1.37348e+02	6.95000e+02	2.99905	137.5
696	1.37862e+02	6.96000e+02	2.99905	138.0
697	1.38353e+02	6.97000e+02	2.99903	138.5
698	1.38865e+02	6.98000e+02	2.999	139.0
699	1.39368e+02	6.99000e+02	2.99896	139.5
700	1.39896e+02	7.00000e+02	2.99889	140.0
701	1.40394e+02	7.01000e+02	2.99882	140.5
702	1.40892e+02	7.02000e+02	2.99875	141.0
703	1.41417e+02	7.03000e+02	2.99867	141.5
704	1.41921e+02	7.04000e+02	2.99855	142.0
705	1.42428e+02	7.05000e+02	2.99845	142.5
706	1.42911e+02	7.06000e+02	2.99834	143.0
707	1.43438e+02	7.07000e+02	2.99823	143.5
708	1.43951e+02	7.08000e+02	2.99812	144.0
709	1.44456e+02	7.09000e+02	2.99801	144.5
710	1.44970e+02	7.10000e+02	2.9979	145.0
711	1.45477e+02	7.11000e+02	2.99779	145.5
712	1.45984e+02	7.12000e+02	2.99768	146.0
713	1.46473e+02	7.13000e+02	2.99757	146.5
714	1.46983e+02	7.14000e+02	2.99745	147.0
715	1.47476e+02	7.15000e+02	2.99732	147.5
716	1.48001e+02	7.16000e+02	2.99718	148.0
717	1.48512e+02	7.17000e+02	2.99704	148.5
718	1.49006e+02	7.18000e+02	2.9969	149.0
719	1.49527e+02	7.19000e+02	2.99676	149.5
720	1.50022e+02	7.20000e+02	2.99661	150.0
721	1.50534e+02	7.21000e+02	2.99645	150.5
722	1.51044e+02	7.22000e+02	2.99628	151.0
723	1.51545e+02	7.23000e+02	2.9961	151.5
724	1.52062e+02	7.24000e+02	2.99589	152.0
725	1.52577e+02	7.25000e+02	2.99568	152.5
726	1.53085e+02	7.26000e+02	2.99546	153.0
727	1.53598e+02	7.27000e+02	2.99524	153.5
728	1.54097e+02	7.28000e+02	2.99498	154.0
729	1.54614e+02	7.29000e+02	2.99473	154.5
730	1.55117e+02	7.30000e+02	2.99449	155.0
731	1.55613e+02	7.31000e+02	2.99423	155.5
732	1.56125e+02	7.32000e+02	2.99397	156.0
733	1.56630e+02	7.33000e+02	2.99371	156.5
734	1.57147e+02	7.34000e+02	2.99345	157.0
735	1.57643e+02	7.35000e+02	2.99319	157.5
736	1.58152e+02	7.36000e+02	2.99293	158.0
737	1.58665e+02	7.37000e+02	2.99267	158.5
738	1.59168e+02	7.38000e+02	2.99242	159.0
739	1.59674e+02	7.39000e+02	2.99217	159.5
740	1.60188e+02	7.40000e+02	2.99192	160.0
741	1.60691e+02	7.41000e+02	2.99167	160.5
742	1.61209e+02	7.42000e+02	2.99142	161.0
743	1.61707e+02	7.43000e+02	2.99118	161.5
744	1.62222e+02	7.44000e+02	2.99093	162.0
745	1.62721e+02	7.45000e+02	2.99067	162.5
746	1.63238e+02	7.46000e+02	2.99041	163.0
747	1.63746e+02	7.47000e+02	2.99013	163.5
748	1.64249e+02	7.48000e+02	2.98983	164.0
749	1.64772e+02	7.49000e+02	2.98953	164.5
750	1.65273e+02	7.50000e+02	2.98922	165.0
751	1.65778e+02	7.51000e+02	2.98891	165.5
752	1.66300e+02	7.52000e+02	2.98857	166.0
753	1.66793e+02	7.53000e+02	2.98823	166.5
754	1.67313e+02	7.54000e+02	2.98789	167.0
755	1.67822e+02	7.55000e+02	2.98754	167.5
756	1.68324e+02	7.56000e+02	2.98716	168.0
757	1.68831e+02	7.57000e+02	2.98676	168.5
758	1.69344e+02	7.58000e+02	2.98636	169.0
759	1.69853e+02	7.59000e+02	2.98594	169.5
760	1.70362e+02	7.60000e+02	2.98547	170.0
761	1.70866e+02	7.61000e+02	2.98501	170.5
762	1.71378e+02	7.62000e+02	2.98455	171.0
763	1.71894e+02	7.63000e+02	2.98409	171.5
764	1.72393e+02	7.64000e+02	2.98359	172.0
765	1.72903e+02	7.65000e+02	2.98311	172.5
766	1.73406e+02	7.66000e+02	2.98261	173.0
767	1.73906e+02	7.67000e+02	2.98211	173.5
768	1.74434e+02	7.68000e+02	2.98157	174.0
769	1.74936e+02	7.69000e+02	2.98103	174.5
770	1.75446e+02	7.70000e+02	2.98048	175.0
771	1.75957e+02	7.71000e+02	2.97991	175.5
772	1.76468e+02	7.72000e+02	2.97927	176.0
773	1.76982e+02	7.73000e+02	2.97862	176.5
774	1.77494e+02	7.74000e+02	2.97795	177.0
775	1.78007e+02	7.75000e+02	2.97726	177.5
776	1.78521e+02	7.76000e+02	2.97646	178.0
777	1.79021e+02	7.77000e+02	2.97567	178.5
778	1.79523e+02	7.78000e+02	2.97486	179.0
779	1.80037e+02	7.79000e+02	2.97402	179.5
780	1.80549e+02	7.80000e+02	2.97306	180.0
781	1.81050e+02	7.81000e+02	2.97211	180.5
782	1.81565e+02	7.82000e+02	2.97113	181.0
783	1.82088e+02	7.83000e+02	2.97012	181.5
784	1.82589e+02	7.84000e+02	2.96899	182.0
785	1.83100e+02	7.85000e+02	2.96788	182.5
786	1.83600e+02	7.86000e+02	2.96676	183.0
787	1.84118e+02	7.87000e+02	2.96562	183.5
788	1.84636e+02	7.88000e+02	2.96438	184.0
789	1.85144e+02	7.89000e+02	2.96314	184.5
790	1.85640e+02	7.90000e+02	2.96189	185.0
791	1.86165e+02	7.91000e+02	2.96062	185.5
792	1.86669e+02	7.92000e+02	2.95925	186.0
793	1.87186e+02	7.93000e+02	2.95789	186.5
794	1.87693e+02	7.94000e+02	2.95653	187.0
795	1.88216e+02	7.95000e+02	2.95514	187.5
796	1.88721e+02	7.96000e+02	2.95367	188.0
797	1.89235e+02	7.97000e+02	2.95221	188.5
798	1.89749e+02	7.98000e+02	2.95072	189.0
799	1.90256e+02	7.99000e+02	2.94921	189.5
800	1.90780e+02	8.00000e+02	2.9476	190.0
801	1.91278e+02	8.01000e+02	2.946	190.5
802	1.91790e+02	8.02000e+02	2.9444	191.0
803	1.92297e+02	8.03000e+02	2.94278	191.5
804	1.92816e+02	8.04000e+02	2.94108	192.0
805	1.93336e+02	8.05000e+02	2.9394	192.5
806	1.93852e+02	8.06000e+02	2.93772	193.0
807	1.94365e+02	8.07000e+02	2.93602	193.5
808	1.94868e+02	8.08000e+02	2.9343	194.0
809	1.95381e+02	8.09000e+02	2.9326	194.5
810	1.95897e+02	8.10000e+02	2.93091	195.0
811	1.96407e+02	8.11000e+02	2.92921	195.5
812	1.96918e+02	8.12000e+02	2.92752	196.0
813	1.97436e+02	8.13000e+02	2.92583	196.5
814	1.97948e+02	8.14000e+02	2.92414	197.0
815	1.98462e+02	8.15000e+02	2.92246	197.5
816	1.98964e+02	8.16000e+02	2.92079	198.0
817	1.99491e+02	8.17000e+02	2.91913	198.5
818	1.99998e+02	8.18000e+02	2.91748	199.0
819	2.00518e+02	8.19000e+02	2.91586	199.5
820	2.01032e+02	8.20000e+02	2.91429	200.0
821	2.01548e+02	8.21000e+02	2.91273	200.5
822	2.02048e+02	8.22000e+02	2.9112	201.0
823	2.02564e+02	8.23000e+02	2.90968	201.5
824	2.03067e+02	8.24000e+02	2.90826	202.0
825	2.03604e+02	8.25000e+02	2.90682	202.5
826	2.04109e+02	8.26000e+02	2.90541	203.0
827	2.04636e+02	8.27000e+02	2.90401	203.5
828	2.05152e+02	8.28000e+02	2.90271	204.0
829	2.05669e+02	8.29000e+02	2.90141	204.5
830	2.06176e+02	8.30000e+02	2.90014	205.0
831	2.06682e+02	8.31000e+02	2.89888	205.5
832	2.07209e+02	8.32000e+02	2.89776	206.0
833	2.07734e+02	8.33000e+02	2.89662	206.5
834	2.08241e+02	8.34000e+02	2.89551	207.0
835	2.08763e+02	8.35000e+02	2.89444	207.5
836	2.09266e+02	8.36000e+02	2.8935	208.0
837	2.09783e+02	8.37000e+02	2.89255	208.5
838	2.10295e+02	8.38000e+02	2.89163	209.0
839	2.10816e+02	8.39000e+02	2.89073	209.5
840	2.11327e+02	8.40000e+02	2.88998	210.0
841	2.11852e+02	8.41000e+02	2.8892	210.5
842	2.12343e+02	8.42000e+02	2.88845	211.0
843	2.12862e+02	8.43000e+02	2.88772	211.5
844	2.13382e+02	8.44000e+02	2.88712	212.0
845	2.13895e+02	8.45000e+02	2.8865	212.5
846	2.14398e+02	8.46000e+02	2.88589	213.0
847	2.14905e+02	8.47000e+02	2.8853	213.5
848	2.15437e+02	8.48000e+02	2.88481	214.0
849	2.15949e+02	8.49000e+02	2.88429	214.5
850	2.16466e+02	8.50000e+02	2.88379	215.0
851	2.16971e+02	8.51000e+02	2.88329	215.5
852	2.17487e+02	8.52000e+02	2.88286	216.0
853	2.17988e+02	8.53000e+02	2.88242	216.5
854	2.18497e+02	8.54000e+02	2.88199	217.0
855	2.18988e+02	8.55000e+02	2.88157	217.5
856	2.19508e+02	8.56000e+02	2.8812	218.0
857	2.20031e+02	8.57000e+02	2.88081	218.5
858	2.20517e+02	8.58000e+02	2.88042	219.0
859	2.21035e+02	8.59000e+02	2.88003	219.5
860	2.21550e+02	8.60000e+02	2.87966	220.0
861	2.22062e+02	8.61000e+02	2.87929	220.5
862	2.22563e+02	8.62000e+02	2.87892	221.0
863	2.23077e+02	8.63000e+02	2.87856	221.5
864	2.23581e+02	8.64000e+02	2.8782	222.0
865	2.24092e+02	8.65000e+02	2.87784	222.5
866	2.24619e+02	8.66000e+02	2.87747	223.0
867	2.25123e+02	8.67000e+02	2.87711	223.5
868	2.25640e+02	8.68000e+02	2.87675	224.0
869	2.26150e+02	8.69000e+02	2.87639	224.5
870	2.26661e+02	8.70000e+02	2.87602	225.0
871	2.27167e+02	8.71000e+02	2.87566	225.5
872	2.27688e+02	8.72000e+02	2.87529	226.0
873	2.28187e+02	8.73000e+02	2.87491	226.5
874	2.28709e+02	8.74000e+02	2.87453	227.0
875	2.29219e+02	8.75000e+02	2.87415	227.5
876	2.29730e+02	8.76000e+02	2.87377	228.0
877	2.30236e+02	8.77000e+02	2.87339	228.5
878	2.30746e+02	8.78000e+02	2.87301	229.0
879	2.31255e+02	8.79000e+02	2.87264	229.5
880	2.31782e+02	8.80000e+02	2.87227	230.0
881	2.32294e+02	8.81000e+02	2.87189	230.5
882	2.32800e+02	8.82000e+02	2.8715	231.0
883	2.33312e+02	8.83000e+02	2.87111	231.5
884	2.33831e+02	8.84000e+02	2.87071	232.0
885	2.34344e+02	8.85000e+02	2.87031	232.5
886	2.34850e+02	8.86000e+02	2.86992	233.0
887	2.35370e+02	8.87000e+02	2.86952	233.5
888	2.35879e+02	8.88000e+02	2.86914	234.0
889	2.36386e+02	8.89000e+02	2.86875	234.5
890	2.36898e+02	8.90000e+02	2.86837	235.0
891	2.37404e+02	8.91000e+02	2.868	235.5
892	2.37932e+02	8.92000e+02	2.86764	236.0
893	2.38443e+02	8.93000e+02	2.86728	236.5
894	2.38956e+02	8.94000e+02	2.86693	237.0
895	2.39470e+02	8.95000e+02	2.86658	237.5
896	2.39970e+02	8.96000e+02	2.86625	238.0
897	2.40492e+02	8.97000e+02	2.8659	238.5
898	2.41010e+02	8.98000e+02	2.86555	239.0
899	2.41516e+02	8.99000e+02	2.8652	239.5
900	2.42022e+02	9.00000e+02	2.86484	240.0
901	2.42522e+02	9.01000e+02	2.86448	240.5
902	2.43028e+02	9.02000e+02	2.86413	241.0
903	2.43545e+02	9.03000e+02	2.86379	241.5
904	2.44046e+02	9.04000e+02	2.86345	242.0
905	2.44556e+02	9.05000e+02	2.86313	242.5
906	2.45062e+02	9.06000e+02	2.86281	243.0
907	2.45576e+02	9.07000e+02	2.86249	243.5
908	2.46093e+02	9.08000e+02	2.8622	244.0
909	2.46598e+02	9.09000e+02	2.86191	244.5
910	2.47111e+02	9.10000e+02	2.86161	245.0
911	2.47625e+02	9.11000e+02	2.86131	245.5
912	2.48121e+02	9.12000e+02	2.86102	246.0
913	2.48641e+02	9.13000e+02	2.86074	246.5
914	2.49158e+02	9.14000e+02	2.86045	247.0
915	2.49673e+02	9.15000e+02	2.86016	247.5
916	2.50182e+02	9.16000e+02	2.85989	248.0
917	2.50701e+02	9.17000e+02	2.85961	248.5
918	2.51213e+02	9.18000e+02	2.85934	249.0
919	2.51723e+02	9.19000e+02	2.85907	249.5
920	2.52232e+02	9.20000e+02	2.85883	250.0
921	2.52748e+02	9.21000e+02	2.85859	250.5
922	2.53260e+02	9.22000e+02	2.85836	251.0
923	2.53791e+02	9.23000e+02	2.85813	251.5
924	2.54286e+02	9.24000e+02	2.85792	252.0
925	2.54808e+02	9.25000e+02	2.85768	252.5
926	2.55325e+02	9.26000e+02	2.85744	253.0
927	2.55822e+02	9.27000e+02	2.8572	253.5
928	2.56341e+02	9.28000e+02	2.85695	254.0
929	2.56857e+02	9.29000e+02	2.8567	254.5
930	2.57366e+02	9.30000e+02	2.85645	255.0
931	2.57879e+02	9.31000e+02	2.85621	255.5
932	2.58393e+02	9.32000e+02	2.85597	256.0
933	2.58899e+02	9.33000e+02	2.85572	256.5
934	2.59414e+02	9.34000e+02	2.85547	257.0
935	2.59912e+02	9.35000e+02	2.85523	257.5
936	2.60427e+02	9.36000e+02	2.85499	258.0
937	2.60923e+02	9.37000e+02	2.85475	258.5
938	2.61441e+02	9.38000e+02	2.85451	259.0
939	2.61949e+02	9.39000e+02	2.85427	259.5
940	2.62457e+02	9.40000e+02	2.85402	260.0
941	2.62951e+02	9.41000e+02	2.85376	260.5
942	2.63479e+02	9.42000e+02	2.8535	261.0
943	2.63986e+02	9.43000e+02	2.85323	261.5
944	2.64500e+02	9.44000e+02	2.85295	262.0
945	2.65004e+02	9.45000e+02	2.85269	262.5
946	2.65504e+02	9.46000e+02	2.85243	263.0
947	2.66013e+02	9.47000e+02	2.85218	263.5
948	2.66535e+02	9.48000e+02	2.85193	264.0
949	2.67042e+02	9.49000e+02	2.85167	264.5
950	2.67543e+02	9.50000e+02	2.85141	265.0
951	2.68048e+02	9.51000e+02	2.85115	265.5
952	2.68555e+02	9.52000e+02	2.85088	266.0
953	2.69048e+02	9.53000e+02	2.85063	266.5
954	2.69548e+02	9.54000e+02	2.85038	267.0
955	2.70052e+02	9.55000e+02	2.85013	267.5
956	2.70566e+02	9.56000e+02	2.84989	268.0
957	2.71070e+02	9.57000e+02	2.84965	268.5
958	2.71571e+02	9.58000e+02	2.8494	269.0
959	2.72087e+02	9.59000e+02	2.84916	269.5
960	2.72593e+02	9.60000e+02	2.84892	270.0
961	2.73095e+02	9.61000e+02	2.84868	270.5
962	2.73612e+02	9.62000e+02	2.84842	271.0
963	2.74120e+02	9.63000e+02	2.84817	271.5
964	2.74623e+02	9.64000e+02	2.84789	272.0
965	2.75120e+02	9.65000e+02	2.8476	272.5
966	2.75646e+02	9.66000e+02	2.8473	273.0
967	2.76148e+02	9.67000e+02	2.847	273.5
968	2.76670e+02	9.68000e+02	2.84666	274.0
969	2.77173e+02	9.69000e+02	2.84633	274.5
970	2.77692e+02	9.70000e+02	2.846	275.0
971	2.78213e+02	9.71000e+02	2.84567	275.5
972	2.78728e+02	9.72000e+02	2.84532	276.0
973	2.79251e+02	9.73000e+02	2.84496	276.5
974	2.79741e+02	9.74000e+02	2.84459	277.0
975	2.80262e+02	9.75000e+02	2.84421	277.5
976	2.80764e+02	9.76000e+02	2.84379	278.0
977	2.81266e+02	9.77000e+02	2.84338	278.5
978	2.81769e+02	9.78000e+02	2.84296	279.0
979	2.82271e+02	9.79000e+02	2.84253	279.5
980	2.82775e+02	9.80000e+02	2.84207	280.0
981	2.83287e+02	9.81000e+02	2.8416	280.5
982	2.83794e+02	9.82000e+02	2.84113	281.0
983	2.84285e+02	9.83000e+02	2.84065	281.5
984	2.84799e+02	9.84000e+02	2.84011	282.0
985	2.85306e+02	9.85000e+02	2.83958	282.5
986	2.85799e+02	9.86000e+02	2.83904	283.0
987	2.86308e+02	9.87000e+02	2.83848	283.5
988	2.86821e+02	9.88000e+02	2.83785	284.0
989	2.87316e+02	9.89000e+02	2.83723	284.5
990	2.87812e+02	9.90000e+02	2.8366	285.0
991	2.88326e+02	9.91000e+02	2.83595	285.5
992	2.88834e+02	9.92000e+02	2.83525	286.0
993	2.89336e+02	9.93000e+02	2.83455	286.5
994	2.89822e+02	9.94000e+02	2.83384	287.0
995	2.90302e+02	9.95000e+02	2.83313	287.5
996	2.90795e+02	9.96000e+02	2.83236	288.0
997	2.91305e+02	9.97000e+02	2.8316	288.5
998	2.91805e+02	9.98000e+02	2.83083	289.0
999	2.92294e+02	9.99000e+02	2.83003	289.5
1000	2.92804e+02	1.00000e+03	2.82917	290.0
1001	2.93306e+02	1.00100e+03	2.82831	290.5
1002	2.93804e+02	1.00200e+03	2.82742	291.0
1003	2.94299e+02	1.00300e+03	2.82651	291.5
1004	2.94783e+02	1.00400e+03	2.8255	292.0
1005	2.95274e+02	1.00500e+03	2.8245	292.5
1006	2.95756e+02	1.00600e+03	2.82348	293.0
1007	2.96257e+02	1.00700e+03	2.82243	293.5
1008	2.96736e+02	1.00800e+03	2.82127	294.0
1009	2.97227e+02	1.00900e+03	2.82012	294.5
1010	2.97719e+02	1.01000e+03	2.81894	295.0
1011	2.98183e+02	1.01100e+03	2.81775	295.5
1012	2.98654e+02	1.01200e+03	2.81645	296.0
1013	2.99129e+02	1.01300e+03	2.81517	296.5
1014	2.99595e+02	1.01400e+03	2.81386	297.0
1015	3.00072e+02	1.01500e+03	2.81253	297.5
1016	3.00552e+02	1.01600e+03	2.8111	298.0
1017	3.01008e+02	1.01700e+03	2.80967	298.5
1018	3.01476e+02	1.01800e+03	2.80822	299.0
1019	3.01944e+02	1.01900e+03	2.80674	299.5
1020	3.02389e+02	1.02000e+03	2.80516	300.0
1021	3.02854e+02	1.02100e+03	2.8036	300.5
1022	3.03339e+02	1.02200e+03	2.80202	301.0
1023	3.03788e+02	1.02300e+03	2.80041	301.5
1024	3.04238e+02	1.02400e+03	2.79871	302.0
1025	3.04711e+02	1.02500e+03	2.79701	302.5
1026	3.05175e+02	1.02600e+03	2.79528	303.0
1027	3.05637e+02	1.02700e+03	2.79352	303.5
1028	3.06098e+02	1.02800e+03	2.79164	304.0
1029	3.06559e+02	1.02900e+03	2.78978	304.5
1030	3.07012e+02	1.03000e+03	2.7879	305.0
1031	3.07468e+02	1.03100e+03	2.78601	305.5
1032	3.07910e+02	1.03200e+03	2.78401	306.0
1033	3.08360e+02	1.03300e+03	2.78203	306.5
1034	3.08811e+02	1.03400e+03	2.78004	307.0
1035	3.09253e+02	1.03500e+03	2.77803	307.5
1036	3.09711e+02	1.03600e+03	2.77595	308.0
1037	3.10181e+02	1.03700e+03	2.77387	308.5
1038	3.10645e+02	1.03800e+03	2.77178	309.0
1039	3.11110e+02	1.03900e+03	2.76967	309.5
1040	3.11555e+02	1.04000e+03	2.76745	310.0
1041	3.12018e+02	1.04100e+03	2.76524	310.5
1042	3.12470e+02	1.04200e+03	2.76299	311.0
1043	3.12925e+02	1.04300e+03	2.76072	311.5
1044	3.13389e+02	1.04400e+03	2.75832	312.0
1045	3.13853e+02	1.04500e+03	2.75595	312.5
1046	3.14334e+02	1.04600e+03	2.75358	313.0
1047	3.14808e+02	1.04700e+03	2.75119	313.5
1048	3.15291e+02	1.04800e+03	2.74871	314.0
1049	3.15788e+02	1.04900e+03	2.74626	314.5
1050	3.16288e+02	1.05000e+03	2.74381	315.0
1051	3.16759e+02	1.05100e+03	2.74135	315.5
1052	3.17254e+02	1.05200e+03	2.73887	316.0
1053	3.17761e+02	1.05300e+03	2.73642	316.5
1054	3.18260e+02	1.05400e+03	2.73398	317.0
1055	3.18749e+02	1.05500e+03	2.73154	317.5
1056	3.19236e+02	1.05600e+03	2.72915	318.0
1057	3.19740e+02	1.05700e+03	2.72674	318.5
1058	3.20238e+02	1.05800e+03	2.72434	319.0
1059	3.20738e+02	1.05900e+03	2.72193	319.5
1060	3.21235e+02	1.06000e+03	2.71955	320.0
1061	3.21743e+02	1.06100e+03	2.71716	320.5
1062	3.22231e+02	1.06200e+03	2.71477	321.0
1063	3.22743e+02	1.06300e+03	2.71238	321.5
1064	3.23233e+02	1.06400e+03	2.70999	322.0
1065	3.23735e+02	1.06500e+03	2.70758	322.5
1066	3.24254e+02	1.06600e+03	2.70516	323.0
1067	3.24750e+02	1.06700e+03	2.70274	323.5
1068	3.25245e+02	1.06800e+03	2.70026	324.0
1069	3.25749e+02	1.06900e+03	2.69779	324.5
1070	3.26237e+02	1.07000e+03	2.69529	325.0
1071	3.26747e+02	1.07100e+03	2.69279	325.5
1072	3.27260e+02	1.07200e+03	2.69019	326.0
1073	3.27767e+02	1.07300e+03	2.6876	326.5
1074	3.28256e+02	1.07400e+03	2.68498	327.0
1075	3.28767e+02	1.07500e+03	2.68233	327.5
1076	3.29270e+02	1.07600e+03	2.67955	328.0
1077	3.29765e+02	1.07700e+03	2.67676	328.5
1078	3.30281e+02	1.07800e+03	2.67392	329.0
1079	3.30782e+02	1.07900e+03	2.67104	329.5
1080	3.31279e+02	1.08000e+03	2.66795	330.0
1081	3.31787e+02	1.08100e+03	2.66487	330.5
1082	3.32290e+02	1.08200e+03	2.66173	331.0
1083	3.32792e+02	1.08300e+03	2.65853	331.5
1084	3.33297e+02	1.08400e+03	2.65506	332.0
1085	3.33797e+02	1.08500e+03	2.65161	332.5
1086	3.34304e+02	1.08600e+03	2.64808	333.0
1087	3.34808e+02	1.08700e+03	2.64448	333.5
1088	3.35294e+02	1.08800e+03	2.64054	334.0
1089	3.35813e+02	1.08900e+03	2.63663	334.5
1090	3.36328e+02	1.09000e+03	2.63264	335.0
1091	3.36828e+02	1.09100e+03	2.62856	335.5
1092	3.37364e+02	1.09200e+03	2.6241	336.0
1093	3.37881e+02	1.09300e+03	2.61966	336.5
1094	3.38424e+02	1.09400e+03	2.61512	337.0
1095	3.39055e+02	1.09500e+03	2.6105	337.5
1096	3.39556e+02	1.09600e+03	2.60544	338.0
1097	3.40067e+02	1.09700e+03	2.60044	338.5
1098	3.40571e+02	1.09800e+03	2.59534	339.0
1099	3.41080e+02	1.09900e+03	2.59015	339.5
1100	3.41617e+02	1.10000e+03	2.5845	340.0
1101	3.42123e+02	1.10100e+03	2.57889	340.5
1102	3.42612e+02	1.10200e+03	2.57315	341.0
1103	3.43122e+02	1.10300e+03	2.56731	341.5
1104	3.43624e+02	1.10400e+03	2.56092	342.0
1105	3.44145e+02	1.10500e+03	2.55459	342.5
1106	3.44616e+02	1.10600e+03	2.54812	343.0
1107	3.45110e+02	1.10700e+03	2.54153	343.5
1108	3.45615e+02	1.10800e+03	2.53432	344.0
1109	3.46109e+02	1.10900e+03	2.52716	344.5
1110	3.46599e+02	1.11000e+03	2.51984	345.0
1111	3.47100e+02	1.11100e+03	2.51239	345.5
1112	3.47605e+02	1.11200e+03	2.50423	346.0
1113	3.48085e+02	1.11300e+03	2.49616	346.5
1114	3.48574e+02	1.11400e+03	2.48793	347.0
1115	3.49066e+02	1.11500e+03	2.47956	347.5
1116	3.49556e+02	1.11600e+03	2.47045	348.0
1117	3.50063e+02	1.11700e+03	2.46144	348.5
1118	3.50551e+02	1.11800e+03	2.45226	349.0
1119	3.51047e+02	1.11900e+03	2.44294	349.5
1120	3.51556e+02	1.12000e+03	2.43285	350.0
1121	3.52062e+02	1.12100e+03	2.42285	350.5
1122	3.52562e+02	1.12200e+03	2.41268	351.0
1123	3.53081e+02	1.12300e+03	2.40235	351.5
1124	3.53581e+02	1.12400e+03	2.39119	352.0
1125	3.54099e+02	1.12500e+03	2.38013	352.5
1126	3.54602e+02	1.12600e+03	2.36887	353.0
1127	3.55099e+02	1.12700e+03	2.35745	353.5
1128	3.55606e+02	1.12800e+03	2.34514	354.0
1129	3.56111e+02	1.12900e+03	2.33295	354.5
1130	3.56594e+02	1.13000e+03	2.32058	355.0
1131	3.57096e+02	1.13100e+03	2.30804	355.5
1132	3.57598e+02	1.13200e+03	2.29463	356.0
1133	3.58110e+02	1.13300e+03	2.28133	356.5
1134	3.58636e+02	1.13400e+03	2.26786	357.0
1135	3.59128e+02	1.13500e+03	2.25422	357.5
1136	3.59638e+02	1.13600e+03	2.23972	358.0
1137	3.60150e+02	1.13700e+03	2.22533	358.5
1138	3.60639e+02	1.13800e+03	2.21075	359.0
1139	3.61141e+02	1.13900e+03	2.196	359.5
1140	3.61630e+02	1.14000e+03	2.18039	360.0
1141	3.62128e+02	1.14100e+03	2.1649	360.5
1142	3.62642e+02	1.14200e+03	2.14924	361.0
1143	3.63146e+02	1.14300e+03	2.13342	361.5
1144	3.63644e+02	1.14400e+03	2.11677	362.0
1145	3.64140e+02	1.14500e+03	2.10025	362.5
1146	3.64613e+02	1.14600e+03	2.08358	363.0
1147	3.65092e+02	1.14700e+03	2.06676	363.5
1148	3.65610e+02	1.14800e+03	2.04919	364.0
1149	3.66145e+02	1.14900e+03	2.03172	364.5
1150	3.66635e+02	1.15000e+03	2.01411	365.0
1151	3.67139e+02	1.15100e+03	1.99636	365.5
1152	3.67673e+02	1.15200e+03	1.97789	366.0
1153	3.68189e+02	1.15300e+03	1.95952	366.5
1154	3.68702e+02	1.15400e+03	1.94098	367.0
1155	3.69199e+02	1.15500e+03	1.92231	367.5
1156	3.69720e+02	1.15600e+03	1.90292	368.0
1157	3.70242e+02	1.15700e+03	1.88363	368.5
1158	3.70733e+02	1.15800e+03	1.86418	369.0
1159	3.71231e+02	1.15900e+03	1.8446	369.5
1160	3.71732e+02	1.16000e+03	1.82431	370.0
1161	3.72244e+02	1.16100e+03	1.80412	370.5
1162	3.72731e+02	1.16200e+03	1.78379	371.0
1163	3.73235e+02	1.16300e+03	1.76332	371.5
1164	3.73728e+02	1.16400e+03	1.74219	372.0
1165	3.74233e+02	1.16500e+03	1.72116	372.5
1166	3.74723e+02	1.16600e+03	1.70002	373.0
1167	3.75206e+02	1.16700e+03	1.67876	373.5
1168	3.75702e+02	1.16800e+03	1.65693	374.0
1169	3.76197e+02	1.16900e+03	1.63521	374.5
1170	3.76688e+02	1.17000e+03	1.61342	375.0
1171	3.77176e+02	1.17100e+03	1.59154	375.5
1172	3.77655e+02	1.17200e+03	1.56924	376.0
1173	3.78157e+02	1.17300e+03	1.54703	376.5
1174	3.78647e+02	1.17400e+03	1.52476	377.0
1175	3.79143e+02	1.17500e+03	1.5024	377.5
1176	3.79639e+02	1.17600e+03	1.47963	378.0
1177	3.80140e+02	1.17700e+03	1.45684	378.5
1178	3.80634e+02	1.17800e+03	1.4339	379.0
1179	3.81143e+02	1.17900e+03	1.41084	379.5
1180	3.81639e+02	1.18000e+03	1.38719	380.0
1181	3.82142e+02	1.18100e+03	1.36364	380.5
1182	3.82652e+02	1.18200e+03	1.34003	381.0
1183	3.83140e+02	1.18300e+03	1.31635	381.5
1184	3.83642e+02	1.18400e+03	1.29224	382.0
1185	3.84141e+02	1.18500e+03	1.26829	382.5
1186	3.84647e+02	1.18600e+03	1.24434	383.0
1187	3.85149e+02	1.18700e+03	1.22038	383.5
1188	3.85655e+02	1.18800e+03	1.19634	384.0
1189	3.86140e+02	1.18900e+03	1.17235	384.5
1190	3.86635e+02	1.19000e+03	1.14839	385.0
1191	3.87137e+02	1.19100e+03	1.12444	385.5
1192	3.87628e+02	1.19200e+03	1.10058	386.0
1193	3.88129e+02	1.19300e+03	1.07674	386.5
1194	3.88621e+02	1.19400e+03	1.05294	387.0
1195	3.89131e+02	1.19500e+03	1.0292	387.5
1196	3.89639e+02	1.19600e+03	1.00568	388.0
1197	3.90124e+02	1.19700e+03	0.982168	388.5
1198	3.90622e+02	1.19800e+03	0.958746	389.0
1199	3.91122e+02	1.19900e+03	0.935397	389.5
1200	3.91626e+02	1.20000e+03	0.912426	390.0
1201	3.92125e+02	1.20100e+03	0.889439	390.5
1202	3.92634e+02	1.20200e+03	0.866568	391.0
1203	3.93142e+02	1.20300e+03	0.843803	391.5
1204	3.93636e+02	1.20400e+03	0.821567	392.0
1205	3.94132e+02	1.20500e+03	0.799308	392.5
1206	3.94634e+02	1.20600e+03	0.7772	393.0
1207	3.95141e+02	1.20700e+03	0.755225	393.5
1208	3.95642e+02	1.20800e+03	0.733963	394.0
1209	3.96149e+02	1.20900e+03	0.712656	394.5
1210	3.96635e+02	1.21000e+03	0.691549	395.0
1211	3.97144e+02	1.21100e+03	0.670615	395.5
1212	3.97642e+02	1.21200e+03	0.650568	396.0
1213	3.98146e+02	1.21300e+03	0.630452	396.5
1214	3.98643e+02	1.21400e+03	0.610562	397.0
1215	3.99151e+02	1.21500e+03	0.590868	397.5
1216	3.99660e+02	1.21600e+03	0.572197	398.0
1217	4.00159e+02	1.21700e+03	0.553412	398.5
1218	4.00662e+02	1.21800e+03	0.534868	399.0
1219	4.01170e+02	1.21900e+03	0.516545	399.5
1220	4.01686e+02	1.22000e+03	0.499324	400.0
1221	4.02199e+02	1.22100e+03	0.481983	400.5
1222	4.02703e+02	1.22200e+03	0.464898	401.0
1223	4.03203e+02	1.22300e+03	0.448038	401.5
1224	4.03731e+02	1.22400e+03	0.432342	402.0
1225	4.04244e+02	1.22500e+03	0.416493	402.5
1226	4.04753e+02	1.22600e+03	0.400898	403.0
1227	4.05265e+02	1.22700e+03	0.385536	403.5
1228	4.05766e+02	1.22800e+03	0.37137	404.0
1229	4.06288e+02	1.22900e+03	0.357068	404.5
1230	4.06799e+02	1.23000e+03	0.343033	405.0
1231	4.07329e+02	1.23100e+03	0.329242	405.5
1232	4.07848e+02	1.23200e+03	0.316689	406.0
1233	4.08341e+02	1.23300e+03	0.303948	406.5
1234	4.08850e+02	1.23400e+03	0.291449	407.0
1235	4.09368e+02	1.23500e+03	0.279179	407.5
1236	4.09878e+02	1.23600e+03	0.268079	408.0
1237	4.10386e+02	1.23700e+03	0.256811	408.5
1238	4.10892e+02	1.23800e+03	0.245776	409.0
1239	4.11408e+02	1.23900e+03	0.234961	409.5
1240	4.11924e+02	1.24000e+03	0.225262	410.0
1241	4.12429e+02	1.24100e+03	0.215397	410.5
1242	4.12938e+02	1.24200e+03	0.205748	411.0
1243	4.13436e+02	1.24300e+03	0.196301	411.5
1244	4.13947e+02	1.24400e+03	0.187903	412.0
1245	4.14455e+02	1.24500e+03	0.17934	412.5
1246	4.14953e+02	1.24600e+03	0.170974	413.0
1247	4.15469e+02	1.24700e+03	0.162797	413.5
1248	4.15965e+02	1.24800e+03	0.155572	414.0
1249	4.16484e+02	1.24900e+03	0.148194	414.5
1250	4.16985e+02	1.25000e+03	0.140993	415.0
1251	4.17475e+02	1.25100e+03	0.133963	415.5
1252	4.17974e+02	1.25200e+03	0.12781	416.0
1253	4.18494e+02	1.25300e+03	0.121531	416.5
1254	4.18986e+02	1.25400e+03	0.115426	417.0
1255	4.19481e+02	1.25500e+03	0.109485	417.5
1256	4.19989e+02	1.25600e+03	0.104372	418.0
1257	4.20484e+02	1.25700e+03	0.0991255	418.5
1258	4.20980e+02	1.25800e+03	0.094027	419.0
1259	4.21475e+02	1.25900e+03	0.0890685	419.5
1260	4.21992e+02	1.26000e+03	0.0848451	420.0
1261	4.22503e+02	1.26100e+03	0.0804931	420.5
1262	4.23000e+02	1.26200e+03	0.0762708	421.0
1263	4.23519e+02	1.26300e+03	0.0721739	421.5
1264	4.24040e+02	1.26400e+03	0.0687101	422.0
1265	4.24562e+02	1.26500e+03	0.0651454	422.5
1266	4.25062e+02	1.26600e+03	0.0616951	423.0
1267	4.25576e+02	1.26700e+03	0.0583535	423.5
1268	4.26076e+02	1.26800e+03	0.0555738	424.0
1269	4.26584e+02	1.26900e+03	0.0526938	424.5
1270	4.27078e+02	1.27000e+03	0.0499098	425.0
1271	4.27572e+02	1.27100e+03	0.0472199	425.5
1272	4.28074e+02	1.27200e+03	0.0450092	426.0
1273	4.28576e+02	1.27300e+03	0.0427203	426.5
1274	4.29081e+02	1.27400e+03	0.0405152	427.0
1275	4.29588e+02	1.27500e+03	0.0383897	427.5
1276	4.30104e+02	1.27600e+03	0.0366792	428.0
1277	4.30575e+02	1.27700e+03	0.0348911	428.5
1278	4.31078e+02	1.27800e+03	0.0331711	429.0
1279	4.31583e+02	1.27900e+03	0.0315185	429.5
1280	4.32087e+02	1.28000e+03	0.0302053	430.0
1281	4.32588e+02	1.28100e+03	0.0288284	430.5
1282	4.33078e+02	1.28200e+03	0.0275004	431.0
1283	4.33591e+02	1.28300e+03	0.0262208	431.5
1284	4.34089e+02	1.28400e+03	0.025199	432.0
1285	4.34590e+02	1.28500e+03	0.0241154	432.5
1286	4.35088e+02	1.28600e+03	0.0230649	433.0
1287	4.35590e+02	1.28700e+03	0.0220512	433.5
1288	4.36081e+02	1.28800e+03	0.0212168	434.0
1289	4.36573e+02	1.28900e+03	0.0203542	434.5
1290	4.37066e+02	1.29000e+03	0.0195224	435.0
1291	4.37566e+02	1.29100e+03	0.0187191	435.5
1292	4.38064e+02	1.29200e+03	0.0180681	436.0
1293	4.38555e+02	1.29300e+03	0.0173845	436.5
1294	4.39053e+02	1.29400e+03	0.0167233	437.0
1295	4.39563e+02	1.29500e+03	0.0160861	437.5
1296	4.40047e+02	1.29600e+03	0.0155746	438.0
1297	4.40541e+02	1.29700e+03	0.0150513	438.5
1298	4.41033e+02	1.29800e+03	0.0145567	439.0
1299	4.41525e+02	1.29900e+03	0.0140871	439.5
1300	4.42025e+02	1.30000e+03	0.0137429	440.0
1301	4.42528e+02	1.30100e+03	0.0133699	440.5
1302	4.43019e+02	1.30200e+03	0.0130093	441.0
1303	4.43504e+02	1.30300e+03	0.0126629	441.5
1304	4.44006e+02	1.30400e+03	0.0123938	442.0
1305	4.44505e+02	1.30500e+03	0.012099	442.5
1306	4.44990e+02	1.30600e+03	0.0118088	443.0
1307	4.45490e+02	1.30700e+03	0.0115263	443.5
1308	4.45979e+02	1.30800e+03	0.0112742	444.0
1309	4.46465e+02	1.30900e+03	0.011015	444.5
1310	4.46962e+02	1.31000e+03	0.0107599	445.0
1311	4.47462e+02	1.31100e+03	0.0105104	445.5
1312	4.47943e+02	1.31200e+03	0.0102936	446.0
1313	4.48432e+02	1.31300e+03	0.0100771	446.5
1314	4.48932e+02	1.31400e+03	0.00987032	447.0
1315	4.49431e+02	1.31500e+03	0.00967265	447.5
1316	4.49934e+02	1.31600e+03	0.00951809	448.0
1317	4.50417e+02	1.31700e+03	0.00935382	448.5
1318	4.50905e+02	1.31800e+03	0.00919585	449.0
1319	4.51411e+02	1.31900e+03	0.00904471	449.5
1320	4.51899e+02	1.32000e+03	0.00892983	450.0
1321	4.52384e+02	1.32100e+03	0.00880889	450.5
1322	4.52894e+02	1.32200e+03	0.00869382	451.0
1323	4.53371e+02	1.32300e+03	0.00858442	451.5
1324	4.53857e+02	1.32400e+03	0.00850088	452.0
1325	4.54335e+02	1.32500e+03	0.0084067	452.5
1326	4.54826e+02	1.32600e+03	0.00831258	453.0
1327	4.55315e+02	1.32700e+03	0.00822041	453.5
1328	4.55817e+02	1.32800e+03	0.00814174	454.0
1329	4.56302e+02	1.32900e+03	0.00806625	454.5
1330	4.56776e+02	1.33000e+03	0.00799851	455.0
1331	4.57270e+02	1.33100e+03	0.00793614	455.5
1332	4.57763e+02	1.33200e+03	0.00789192	456.0
1333	4.58257e+02	1.33300e+03	0.00784161	456.5
1334	4.58745e+02	1.33400e+03	0.00779018	457.0
1335	4.59242e+02	1.33500e+03	0.00773817	457.5
1336	4.59724e+02	1.33600e+03	0.0076918	458.0
1337	4.60210e+02	1.33700e+03	0.00764149	458.5
1338	4.60707e+02	1.33800e+03	0.00759203	459.0
1339	4.61205e+02	1.33900e+03	0.00754386	459.5
1340	4.61695e+02	1.34000e+03	0.00749452	460.0
1341	4.62170e+02	1.34100e+03	0.00744922	460.5
1342	4.62662e+02	1.34200e+03	0.00740519	461.0
1343	4.63164e+02	1.34300e+03	0.00736133	461.5
1344	4.63643e+02	1.34400e+03	0.00732537	462.0
1345	4.64127e+02	1.34500e+03	0.00728633	462.5
1346	4.64603e+02	1.34600e+03	0.00724771	463.0
1347	4.65085e+02	1.34700e+03	0.00720971	463.5
1348	4.65564e+02	1.34800e+03	0.00717609	464.0
1349	4.66054e+02	1.34900e+03	0.00714482	464.5
1350	4.66537e+02	1.35000e+03	0.00711575	465.0
1351	4.67032e+02	1.35100e+03	0.0070883	465.5
1352	4.67515e+02	1.35200e+03	0.00707487	466.0
1353	4.68009e+02	1.35300e+03	0.00706292	466.5
1354	4.68492e+02	1.35400e+03	0.00705785	467.0
1355	4.68986e+02	1.35500e+03	0.00705822	467.5
1356	4.69473e+02	1.35600e+03	0.00708254	468.0
1357	4.69949e+02	1.35700e+03	0.00710226	468.5
1358	4.70433e+02	1.35800e+03	0.00712063	469.0
1359	4.70918e+02	1.35900e+03	0.00713768	469.5
1360	4.71393e+02	1.36000e+03	0.00715692	470.0
1361	4.71877e+02	1.36100e+03	0.00716123	470.5
1362	4.72357e+02	1.36200e+03	0.00715665	471.0
1363	4.72852e+02	1.36300e+03	0.00714714	471.5
1364	4.73333e+02	1.36400e+03	0.00710382	472.0
1365	4.73821e+02	1.36500e+03	0.00707162	472.5
1366	4.74309e+02	1.36600e+03	0.00703987	473.0
1367	4.74807e+02	1.36700e+03	0.00700688	473.5
1368	4.75285e+02	1.36800e+03	0.00696211	474.0
1369	4.75779e+02	1.36900e+03	0.00692295	474.5
1370	4.76254e+02	1.37000e+03	0.0068856	475.0
1371	4.76748e+02	1.37100e+03	0.00684961	475.5
1372	4.77221e+02	1.37200e+03	0.0068196	476.0
1373	4.77716e+02	1.37300e+03	0.00679227	476.5
1374	4.78201e+02	1.37400e+03	0.00676829	477.0
1375	4.78687e+02	1.37500e+03	0.00674608	477.5
1376	4.79160e+02	1.37600e+03	0.00673254	478.0
1377	4.79655e+02	1.37700e+03	0.0067118	478.5
1378	4.80141e+02	1.37800e+03	0.00668764	479.0
1379	4.80625e+02	1.37900e+03	0.00666197	479.5
1380	4.81118e+02	1.38000e+03	0.00663298	480.0
1381	4.81601e+02	1.38100e+03	0.00660593	480.5
1382	4.82084e+02	1.38200e+03	0.00658017	481.0
1383	4.82576e+02	1.38300e+03	0.00655498	481.5
1384	4.83060e+02	1.38400e+03	0.0065277	482.0
1385	4.83540e+02	1.38500e+03	0.00650126	482.5
1386	4.84029e+02	1.38600e+03	0.00647676	483.0
1387	4.84518e+02	1.38700e+03	0.00645457	483.5
1388	4.84999e+02	1.38800e+03	0.00644125	484.0
1389	4.85486e+02	1.38900e+03	0.00643145	484.5
1390	4.85973e+02	1.39000e+03	0.00642577	485.0
1391	4.86449e+02	1.39100e+03	0.0064222	485.5
1392	4.86918e+02	1.39200e+03	0.00642803	486.0
1393	4.87399e+02	1.39300e+03	0.00642161	486.5
1394	4.87886e+02	1.39400e+03	0.00640803	487.0
1395	4.88376e+02	1.39500e+03	0.00639068	487.5
1396	4.88844e+02	1.39600e+03	0.00635985	488.0
1397	4.89328e+02	1.39700e+03	0.00633518	488.5
1398	4.89820e+02	1.39800e+03	0.00631292	489.0
1399	4.90290e+02	1.39900e+03	0.00629168	489.5
1400	4.90776e+02	1.40000e+03	0.00626759	490.0
1401	4.91256e+02	1.40100e+03	0.00624529	490.5
1402	4.91743e+02	1.40200e+03	0.00622222	491.0
1403	4.92216e+02	1.40300e+03	0.00619836	491.5
1404	4.92698e+02	1.40400e+03	0.00618009	492.0
1405	4.93189e+02	1.40500e+03	0.00616392	492.5
1406	4.93681e+02	1.40600e+03	0.00615277	493.0
1407	4.94167e+02	1.40700e+03	0.00614518	493.5
1408	4.94650e+02	1.40800e+03	0.00614611	494.0
1409	4.95131e+02	1.40900e+03	0.0061435	494.5
1410	4.95619e+02	1.41000e+03	0.00613782	495.0
1411	4.96111e+02	1.41100e+03	0.00612983	495.5
1412	4.96593e+02	1.41200e+03	0.00611925	496.0
1413	4.97096e+02	1.41300e+03	0.00610314	496.5
1414	4.97596e+02	1.41400e+03	0.00608425	497.0
1415	4.98088e+02	1.41500e+03	0.00606416	497.5
1416	4.98593e+02	1.41600e+03	0.00603069	498.0
1417	4.99088e+02	1.41700e+03	0.00600437	498.5
1418	4.99575e+02	1.41800e+03	0.00597865	499.0
1419	5.00055e+02	1.41900e+03	0.00595266	499.5
1420	5.00557e+02	1.42000e+03	0.00593066	500.0
1421	5.01046e+02	1.42100e+03	0.0059101	500.5
1422	5.01527e+02	1.42200e+03	0.00589354	501.0
1423	5.02024e+02	1.42300e+03	0.00588055	501.5
1424	5.02521e+02	1.42400e+03	0.00587667	502.0
1425	5.03005e+02	1.42500e+03	0.00586946	502.5
1426	5.03502e+02	1.42600e+03	0.00585864	503.0
1427	5.03997e+02	1.42700e+03	0.00584475	503.5
1428	5.04496e+02	1.42800e+03	0.00582743	504.0
1429	5.04997e+02	1.42900e+03	0.00580543	504.5
1430	5.05482e+02	1.43000e+03	0.00578277	505.0
1431	5.05958e+02	1.43100e+03	0.00576071	505.5
1432	5.06445e+02	1.43200e+03	0.00572936	506.0
1433	5.06931e+02	1.43300e+03	0.00570751	506.5
1434	5.07422e+02	1.43400e+03	0.00568649	507.0
1435	5.07927e+02	1.43500e+03	0.00566374	507.5
1436	5.08421e+02	1.43600e+03	0.00564465	508.0
1437	5.08900e+02	1.43700e+03	0.00561734	508.5
1438	5.09386e+02	1.43800e+03	0.00558935	509.0
1439	5.09870e+02	1.43900e+03	0.00556313	509.5
1440	5.10378e+02	1.44000e+03	0.00553267	510.0
1441	5.10849e+02	1.44100e+03	0.00551256	510.5
1442	5.11358e+02	1.44200e+03	0.00549732	511.0
1443	5.11853e+02	1.44300e+03	0.00548417	511.5
1444	5.12358e+02	1.44400e+03	0.00548755	512.0
1445	5.12854e+02	1.44500e+03	0.00548312	512.5
1446	5.13345e+02	1.44600e+03	0.00547846	513.0
1447	5.13834e+02	1.44700e+03	0.00547489	513.5
1448	5.14329e+02	1.44800e+03	0.00547642	514.0
1449	5.14829e+02	1.44900e+03	0.00547937	514.5
1450	5.15324e+02	1.45000e+03	0.0054837	515.0
1451	5.15822e+02	1.45100e+03	0.00548847	515.5
1452	5.16317e+02	1.45200e+03	0.00549698	516.0
1453	5.16813e+02	1.45300e+03	0.00550185	516.5
1454	5.17310e+02	1.45400e+03	0.00550692	517.0
1455	5.17816e+02	1.45500e+03	0.00551293	517.5
1456	5.18301e+02	1.45600e+03	0.00551651	518.0
1457	5.18803e+02	1.45700e+03	0.00552146	518.5
1458	5.19290e+02	1.45800e+03	0.00552503	519.0
1459	5.19775e+02	1.45900e+03	0.00552646	519.5
1460	5.20267e+02	1.46000e+03	0.00551714	520.0
1461	5.20771e+02	1.46100e+03	0.00550132	520.5
1462	5.21266e+02	1.46200e+03	0.00548052	521.0
1463	5.21756e+02	1.46300e+03	0.00545733	521.5
1464	5.22273e+02	1.46400e+03	0.00542004	522.0
1465	5.22775e+02	1.46500e+03	0.00539814	522.5
1466	5.23269e+02	1.46600e+03	0.00538308	523.0
1467	5.23755e+02	1.46700e+03	0.0053709	523.5
1468	5.24262e+02	1.46800e+03	0.00537458	524.0
1469	5.24738e+02	1.46900e+03	0.00537227	524.5
1470	5.25217e+02	1.47000e+03	0.00537052	525.0
1471	5.25702e+02	1.47100e+03	0.00537023	525.5
1472	5.26202e+02	1.47200e+03	0.00537596	526.0
1473	5.26688e+02	1.47300e+03	0.00537925	526.5
1474	5.27173e+02	1.47400e+03	0.0053823	527.0
1475	5.27671e+02	1.47500e+03	0.00538498	527.5
1476	5.28159e+02	1.47600e+03	0.00538216	528.0
1477	5.28669e+02	1.47700e+03	0.00537537	528.5
1478	5.29166e+02	1.47800e+03	0.00536499	529.0
1479	5.29664e+02	1.47900e+03	0.00535267	529.5
1480	5.30154e+02	1.48000e+03	0.00533187	530.0
1481	5.30651e+02	1.48100e+03	0.00531867	530.5
1482	5.31154e+02	1.48200e+03	0.00530924	531.0
1483	5.31650e+02	1.48300e+03	0.005302	531.5
1484	5.32141e+02	1.48400e+03	0.00530095	532.0
1485	5.32640e+02	1.48500e+03	0.00529713	532.5
1486	5.33140e+02	1.48600e+03	0.00529272	533.0
1487	5.33631e+02	1.48700e+03	0.00528863	533.5
1488	5.34134e+02	1.48800e+03	0.00528949	534.0
1489	5.34663e+02	1.48900e+03	0.00528904	534.5
1490	5.35150e+02	1.49000e+03	0.00528938	535.0
1491	5.35657e+02	1.49100e+03	0.00529051	535.5
1492	5.36161e+02	1.49200e+03	0.00528991	536.0
1493	5.36667e+02	1.49300e+03	0.0052849	536.5
1494	5.37177e+02	1.49400e+03	0.00527542	537.0
1495	5.37679e+02	1.49500e+03	0.00526315	537.5
1496	5.38171e+02	1.49600e+03	0.00524139	538.0
1497	5.38666e+02	1.49700e+03	0.00522411	538.5
1498	5.39169e+02	1.49800e+03	0.00521057	539.0
1499	5.39664e+02	1.49900e+03	0.00520007	539.5
1500	5.40164e+02	1.50000e+03	0.00519551	540.0
1501	5.40658e+02	1.50100e+03	0.00519449	540.5
1502	5.41255e+02	1.50200e+03	0.00519512	541.0
1503	5.42061e+02	1.50300e+03	0.00519655	541.5
1504	5.42612e+02	1.50400e+03	0.00520942	542.0
1505	5.43099e+02	1.50500e+03	0.00521289	542.5
1506	5.43648e+02	1.50600e+03	0.00521319	543.0
1507	5.44118e+02	1.50700e+03	0.00521243	543.5
1508	5.44606e+02	1.50800e+03	0.00519879	544.0
1509	5.45122e+02	1.50900e+03	0.00518419	544.5
1510	5.45621e+02	1.51000e+03	0.0051641	545.0
1511	5.46129e+02	1.51100e+03	0.00513954	545.5
1512	5.46639e+02	1.51200e+03	0.0050979	546.0
1513	5.47127e+02	1.51300e+03	0.00506171	546.5
1514	5.47601e+02	1.51400e+03	0.00502826	547.0
1515	5.48106e+02	1.51500e+03	0.00499752	547.5
1516	5.48589e+02	1.51600e+03	0.00497303	548.0
1517	5.49070e+02	1.51700e+03	0.00495927	548.5
1518	5.49563e+02	1.51800e+03	0.00495266	549.0
1519	5.50046e+02	1.51900e+03	0.00494968	549.5
1520	5.50531e+02	1.52000e+03	0.00497487	550.0
1521	5.51036e+02	1.52100e+03	0.00498614	550.5
1522	5.51531e+02	1.52200e+03	0.00499502	551.0
1523	5.52030e+02	1.52300e+03	0.00500434	551.5
1524	5.52529e+02	1.52400e+03	0.00501742	552.0
1525	5.53031e+02	1.52500e+03	0.0050318	552.5
1526	5.53518e+02	1.52600e+03	0.00504801	553.0
1527	5.54012e+02	1.52700e+03	0.00506496	553.5
1528	5.54525e+02	1.52800e+03	0.00508034	554.0
1529	5.55018e+02	1.52900e+03	0.00508931	554.5
1530	5.55497e+02	1.53000e+03	0.00509349	555.0
1531	5.55996e+02	1.53100e+03	0.00509479	555.5
1532	5.56495e+02	1.53200e+03	0.00508223	556.0
1533	5.56997e+02	1.53300e+03	0.00507395	556.5
1534	5.57495e+02	1.53400e+03	0.00506497	557.0
1535	5.57998e+02	1.53500e+03	0.00505465	557.5
1536	5.58507e+02	1.53600e+03	0.00503684	558.0
1537	5.59021e+02	1.53700e+03	0.0050241	558.5
1538	5.59538e+02	1.53800e+03	0.00501514	559.0
1539	5.60040e+02	1.53900e+03	0.00500911	559.5
1540	5.60539e+02	1.54000e+03	0.00501353	560.0
1541	5.61025e+02	1.54100e+03	0.0050193	560.5
1542	5.61550e+02	1.54200e+03	0.00502423	561.0
1543	5.62088e+02	1.54300e+03	0.00502664	561.5
1544	5.62596e+02	1.54400e+03	0.00502828	562.0
1545	5.63100e+02	1.54500e+03	0.00501801	562.5
1546	5.63584e+02	1.54600e+03	0.00500276	563.0
1547	5.64071e+02	1.54700e+03	0.00498597	563.5
1548	5.64555e+02	1.54800e+03	0.00495266	564.0
1549	5.65047e+02	1.54900e+03	0.00493746	564.5
1550	5.65528e+02	1.55000e+03	0.00493004	565.0
1551	5.66006e+02	1.55100e+03	0.00492568	565.5
1552	5.66492e+02	1.55200e+03	0.00493823	566.0
1553	5.66976e+02	1.55300e+03	0.00494177	566.5
1554	5.67448e+02	1.55400e+03	0.00494404	567.0
1555	5.67952e+02	1.55500e+03	0.00494679	567.5
1556	5.68465e+02	1.55600e+03	0.00495433	568.0
1557	5.68948e+02	1.55700e+03	0.00496396	568.5
1558	5.69417e+02	1.55800e+03	0.00497631	569.0
1559	5.69908e+02	1.55900e+03	0.00498973	569.5
1560	5.70405e+02	1.56000e+03	0.00500352	570.0
1561	5.70897e+02	1.56100e+03	0.00500954	570.5
1562	5.71383e+02	1.56200e+03	0.00500969	571.0
1563	5.71894e+02	1.56300e+03	0.00500688	571.5
1564	5.72388e+02	1.56400e+03	0.00499358	572.0
1565	5.72888e+02	1.56500e+03	0.00498626	572.5
1566	5.73402e+02	1.56600e+03	0.00498073	573.0
1567	5.73880e+02	1.56700e+03	0.00497609	573.5
1568	5.74381e+02	1.56800e+03	0.00497315	574.0
1569	5.74874e+02	1.56900e+03	0.00497024	574.5
1570	5.75372e+02	1.57000e+03	0.00496697	575.0
1571	5.75870e+02	1.57100e+03	0.00496379	575.5
1572	5.76374e+02	1.57200e+03	0.00496737	576.0
1573	5.76874e+02	1.57300e+03	0.00497143	576.5
1574	5.77375e+02	1.57400e+03	0.00497761	577.0
1575	5.77874e+02	1.57500e+03	0.00498526	577.5
1576	5.78379e+02	1.57600e+03	0.00499542	578.0
1577	5.78867e+02	1.57700e+03	0.00499929	578.5
1578	5.79384e+02	1.57800e+03	0.0049977	579.0
1579	5.79888e+02	1.57900e+03	0.004993	579.5
1580	5.80393e+02	1.58000e+03	0.00498099	580.0
1581	5.80894e+02	1.58100e+03	0.00497348	580.5
1582	5.81409e+02	1.58200e+03	0.00496849	581.0
1583	5.81909e+02	1.58300e+03	0.00496491	581.5
1584	5.82410e+02	1.58400e+03	0.00496017	582.0
1585	5.82909e+02	1.58500e+03	0.00495503	582.5
1586	5.83400e+02	1.58600e+03	0.00494747	583.0
1587	5.83888e+02	1.58700e+03	0.00493824	583.5
1588	5.84396e+02	1.58800e+03	0.00492917	584.0
1589	5.84930e+02	1.58900e+03	0.00491947	584.5
1590	5.85488e+02	1.59000e+03	0.00491123	585.0
1591	5.86014e+02	1.59100e+03	0.0049047	585.5
1592	5.86585e+02	1.59200e+03	0.00489938	586.0
1593	5.87135e+02	1.59300e+03	0.00489692	586.5
1594	5.87752e+02	1.59400e+03	0.00489506	587.0
1595	5.88326e+02	1.59500e+03	0.00489288	587.5
1596	5.88957e+02	1.59600e+03	0.00489993	588.0
1597	5.89494e+02	1.59700e+03	0.00490514	588.5
1598	5.90176e+02	1.59800e+03	0.0049131	589.0
1599	5.90653e+02	1.59900e+03	0.00492399	589.5
1600	5.91276e+02	1.60000e+03	0.00494437	590.0
1601	5.91686e+02	1.60100e+03	0.00496581	590.5
1602	5.91857e+02	1.60200e+03	0.00498798	591.0
1603	5.92217e+02	1.60300e+03	0.00500963	591.5
1604	5.92659e+02	1.60400e+03	0.00503334	592.0
1605	5.93061e+02	1.60500e+03	0.00504619	592.5
1606	5.93366e+02	1.60600e+03	0.00505349	593.0
1607	5.93788e+02	1.60700e+03	0.00505797	593.5
1608	5.94247e+02	1.60800e+03	0.00504078	594.0
1609	5.94710e+02	1.60900e+03	0.00503109	594.5
1610	5.95160e+02	1.61000e+03	0.0050202	595.0
1611	5.95598e+02	1.61100e+03	0.00500727	595.5
1612	5.96071e+02	1.61200e+03	0.00498564	596.0
1613	5.96528e+02	1.61300e+03	0.00496854	596.5
1614	5.97003e+02	1.61400e+03	0.00495677	597.0
1615	5.97462e+02	1.61500e+03	0.00494939	597.5
1616	5.97924e+02	1.61600e+03	0.00495753	598.0
1617	5.98408e+02	1.61700e+03	0.00497355	598.5
1618	5.98884e+02	1.61800e+03	0.00499669	599.0
1619	5.99359e+02	1.61900e+03	0.00502327	599.5
1620	5.99822e+02	1.62000e+03	0.00507404	600.0
1621	6.00311e+02	1.62100e+03	0.00510542	600.5
1622	6.00802e+02	1.62200e+03	0.00512878	601.0
1623	6.01291e+02	1.62300e+03	0.00514827	601.5
1624	6.01784e+02	1.62400e+03	0.00514636	602.0
1625	6.02273e+02	1.62500e+03	0.00514554	602.5
1626	6.02746e+02	1.62600e+03	0.00513914	603.0
1627	6.03236e+02	1.62700e+03	0.00512783	603.5
1628	6.03719e+02	1.62800e+03	0.00508797	604.0
1629	6.04219e+02	1.62900e+03	0.00505405	604.5
1630	6.04734e+02	1.63000e+03	0.00501982	605.0
1631	6.05230e+02	1.63100e+03	0.00498584	605.5
1632	6.05714e+02	1.63200e+03	0.00494884	606.0
1633	6.06196e+02	1.63300e+03	0.00492536	606.5
1634	6.06689e+02	1.63400e+03	0.0049094	607.0
1635	6.07161e+02	1.63500e+03	0.00489697	607.5
1636	6.07647e+02	1.63600e+03	0.00490272	608.0
1637	6.08123e+02	1.63700e+03	0.00489398	608.5
1638	6.08623e+02	1.63800e+03	0.00487859	609.0
1639	6.09105e+02	1.63900e+03	0.00485976	609.5
1640	6.09604e+02	1.64000e+03	0.00483703	610.0
1641	6.10149e+02	1.64100e+03	0.00482302	610.5
1642	6.10682e+02	1.64200e+03	0.00481517	611.0
1643	6.11220e+02	1.64300e+03	0.00481084	611.5
1644	6.11756e+02	1.64400e+03	0.00481711	612.0
1645	6.12253e+02	1.64500e+03	0.00482031	612.5
1646	6.12753e+02	1.64600e+03	0.00482214	613.0
1647	6.13285e+02	1.64700e+03	0.00482336	613.5
1648	6.13811e+02	1.64800e+03	0.00483077	614.0
1649	6.14284e+02	1.64900e+03	0.00483454	614.5
1650	6.14825e+02	1.65000e+03	0.00483928	615.0
1651	6.15388e+02	1.65100e+03	0.00484522	615.5
1652	6.15946e+02	1.65200e+03	0.00484645	616.0
1653	6.16437e+02	1.65300e+03	0.00484819	616.5
1654	6.16959e+02	1.65400e+03	0.00484752	617.0
1655	6.17466e+02	1.65500e+03	0.00484456	617.5
1656	6.17978e+02	1.65600e+03	0.00483956	618.0
1657	6.18443e+02	1.65700e+03	0.00483526	618.5
1658	6.18960e+02	1.65800e+03	0.00483087	619.0
1659	6.19476e+02	1.65900e+03	0.00482636	619.5
1660	6.20016e+02	1.66000e+03	0.00481755	620.0
1661	6.20565e+02	1.66100e+03	0.00480858	620.5
1662	6.21095e+02	1.66200e+03	0.00479706	621.0
1663	6.21628e+02	1.66300e+03	0.00478345	621.5
1664	6.22107e+02	1.66400e+03	0.00476697	622.0
1665	6.22560e+02	1.66500e+03	0.00475539	622.5
1666	6.23044e+02	1.66600e+03	0.00474834	623.0
1667	6.23524e+02	1.66700e+03	0.00474394	623.5
1668	6.24016e+02	1.66800e+03	0.00474824	624.0
1669	6.24508e+02	1.66900e+03	0.00475331	624.5
1670	6.24987e+02	1.67000e+03	0.00475845	625.0
1671	6.25489e+02	1.67100e+03	0.00476295	625.5
1672	6.25987e+02	1.67200e+03	0.00477463	626.0
1673	6.26483e+02	1.67300e+03	0.00477924	626.5
1674	6.26988e+02	1.67400e+03	0.00478212	627.0
1675	6.27478e+02	1.67500e+03	0.00478464	627.5
1676	6.27987e+02	1.67600e+03	0.00477561	628.0
1677	6.28517e+02	1.67700e+03	0.00476881	628.5
1678	6.29024e+02	1.67800e+03	0.00475882	629.0
1679	6.29524e+02	1.67900e+03	0.00474578	629.5
1680	6.29980e+02	1.68000e+03	0.00472319	630.0
1681	6.30452e+02	1.68100e+03	0.00470275	630.5
1682	6.30923e+02	1.68200e+03	0.00468357	631.0
1683	6.31400e+02	1.68300e+03	0.0046655	631.5
1684	6.31900e+02	1.68400e+03	0.00464944	632.0
1685	6.32373e+02	1.68500e+03	0.00464056	632.5
1686	6.32870e+02	1.68600e+03	0.00463617	633.0
1687	6.33354e+02	1.68700e+03	0.00463413	633.5
1688	6.33845e+02	1.68800e+03	0.00464743	634.0
1689	6.34346e+02	1.68900e+03	0.00465425	634.5
1690	6.34830e+02	1.69000e+03	0.00466312	635.0
1691	6.35327e+02	1.69100e+03	0.00467398	635.5
1692	6.35813e+02	1.69200e+03	0.00469076	636.0
1693	6.36319e+02	1.69300e+03	0.0047086	636.5
1694	6.36816e+02	1.69400e+03	0.0047265	637.0
1695	6.37300e+02	1.69500e+03	0.00474353	637.5
1696	6.37792e+02	1.69600e+03	0.00476	638.0
1697	6.38292e+02	1.69700e+03	0.00477074	638.5
1698	6.38792e+02	1.69800e+03	0.00478166	639.0
1699	6.39302e+02	1.69900e+03	0.00479446	639.5
1700	6.39795e+02	1.70000e+03	0.00480549	640.0
1701	6.40287e+02	1.70100e+03	0.00482568	640.5
1702	6.40786e+02	1.70200e+03	0.00484921	641.0
1703	6.41280e+02	1.70300e+03	0.00487376	641.5
1704	6.41780e+02	1.70400e+03	0.00490748	642.0
1705	6.42260e+02	1.70500e+03	0.00492678	642.5
1706	6.42778e+02	1.70600e+03	0.00494043	643.0
1707	6.43278e+02	1.70700e+03	0.00495226	643.5
1708	6.43765e+02	1.70800e+03	0.0049478	644.0
1709	6.44249e+02	1.70900e+03	0.00495194	644.5
1710	6.44754e+02	1.71000e+03	0.00495786	645.0
1711	6.45256e+02	1.71100e+03	0.00496328	645.5
1712	6.45747e+02	1.71200e+03	0.00496558	646.0
1713	6.46231e+02	1.71300e+03	0.00496678	646.5
1714	6.46729e+02	1.71400e+03	0.0049667	647.0
1715	6.47229e+02	1.71500e+03	0.00496615	647.5
1716	6.47711e+02	1.71600e+03	0.00496528	648.0
1717	6.48213e+02	1.71700e+03	0.00496775	648.5
1718	6.48701e+02	1.71800e+03	0.00497131	649.0
1719	6.49206e+02	1.71900e+03	0.00497489	649.5
1720	6.49705e+02	1.72000e+03	0.00497449	650.0
1721	6.50211e+02	1.72100e+03	0.00496513	650.5
1722	6.50726e+02	1.72200e+03	0.00494925	651.0
1723	6.51253e+02	1.72300e+03	0.00493073	651.5
1724	6.51764e+02	1.72400e+03	0.00489568	652.0
1725	6.52253e+02	1.72500e+03	0.00486784	652.5
1726	6.52749e+02	1.72600e+03	0.00483997	653.0
1727	6.53240e+02	1.72700e+03	0.00481093	653.5
1728	6.53725e+02	1.72800e+03	0.00477654	654.0
1729	6.54226e+02	1.72900e+03	0.00474228	654.5
1730	6.54729e+02	1.73000e+03	0.00470863	655.0
1731	6.55233e+02	1.73100e+03	0.00467682	655.5
1732	6.55736e+02	1.73200e+03	0.00465346	656.0
1733	6.56242e+02	1.73300e+03	0.00463848	656.5
1734	6.56756e+02	1.73400e+03	0.00463045	657.0
1735	6.57269e+02	1.73500e+03	0.00462662	657.5
1736	6.57779e+02	1.73600e+03	0.00464687	658.0
1737	6.58276e+02	1.73700e+03	0.0046556	658.5
1738	6.58784e+02	1.73800e+03	0.0046626	659.0
1739	6.59291e+02	1.73900e+03	0.00466969	659.5
1740	6.59779e+02	1.74000e+03	0.00468282	660.0
1741	6.60280e+02	1.74100e+03	0.00469706	660.5
1742	6.60773e+02	1.74200e+03	0.00471328	661.0
1743	6.61282e+02	1.74300e+03	0.00473059	661.5
1744	6.61792e+02	1.74400e+03	0.00475243	662.0
1745	6.62294e+02	1.74500e+03	0.00477067	662.5
1746	6.62825e+02	1.74600e+03	0.00478646	663.0
1747	6.63346e+02	1.74700e+03	0.00480065	663.5
1748	6.63844e+02	1.74800e+03	0.00481051	664.0
1749	6.64359e+02	1.74900e+03	0.00482104	664.5
1750	6.64887e+02	1.75000e+03	0.0048316	665.0
1751	6.65390e+02	1.75100e+03	0.00484187	665.5
1752	6.65911e+02	1.75200e+03	0.00484693	666.0
1753	6.66419e+02	1.75300e+03	0.00485493	666.5
1754	6.66928e+02	1.75400e+03	0.00486333	667.0
1755	6.67426e+02	1.75500e+03	0.00487084	667.5
1756	6.67930e+02	1.75600e+03	0.00487541	668.0
1757	6.68429e+02	1.75700e+03	0.0048785	668.5
1758	6.68937e+02	1.75800e+03	0.00488104	669.0
1759	6.69455e+02	1.75900e+03	0.00488374	669.5
1760	6.69973e+02	1.76000e+03	0.00488315	670.0
1761	6.70500e+02	1.76100e+03	0.00488623	670.5
1762	6.70999e+02	1.76200e+03	0.00489079	671.0
1763	6.71504e+02	1.76300e+03	0.00489596	671.5
1764	6.72037e+02	1.76400e+03	0.00490443	672.0
1765	6.72579e+02	1.76500e+03	0.00491151	672.5
1766	6.73089e+02	1.76600e+03	0.00491848	673.0
1767	6.73634e+02	1.76700e+03	0.00492486	673.5
1768	6.74158e+02	1.76800e+03	0.0049268	674.0
1769	6.74690e+02	1.76900e+03	0.0049251	674.5
1770	6.75223e+02	1.77000e+03	0.00491665	675.0
1771	6.75745e+02	1.77100e+03	0.00490308	675.5
1772	6.76263e+02	1.77200e+03	0.00487332	676.0
1773	6.76791e+02	1.77300e+03	0.00484791	676.5
1774	6.77305e+02	1.77400e+03	0.00482562	677.0
1775	6.77802e+02	1.77500e+03	0.00480583	677.5
1776	6.78312e+02	1.77600e+03	0.00478373	678.0
1777	6.78818e+02	1.77700e+03	0.00476959	678.5
1778	6.79325e+02	1.77800e+03	0.00475788	679.0
1779	6.79838e+02	1.77900e+03	0.00474611	679.5
1780	6.80346e+02	1.78000e+03	0.00474316	680.0
1781	6.80866e+02	1.78100e+03	0.00473079	680.5
1782	6.81402e+02	1.78200e+03	0.00471802	681.0
1783	6.81913e+02	1.78300e+03	0.00470672	681.5
1784	6.82441e+02	1.78400e+03	0.0046928	682.0
1785	6.82949e+02	1.78500e+03	0.00468728	682.5
1786	6.83450e+02	1.78600e+03	0.00468453	683.0
1787	6.83965e+02	1.78700e+03	0.00468227	683.5
1788	6.84471e+02	1.78800e+03	0.00468886	684.0
1789	6.84988e+02	1.78900e+03	0.00468532	684.5
1790	6.85507e+02	1.79000e+03	0.00467834	685.0
1791	6.86018e+02	1.79100e+03	0.0046709	685.5
1792	6.86493e+02	1.79200e+03	0.00466589	686.0
1793	6.86978e+02	1.79300e+03	0.00467261	686.5
1794	6.87477e+02	1.79400e+03	0.00468653	687.0
1795	6.87683e+02	1.79500e+03	0.00470406	687.5
1796	6.87864e+02	1.79600e+03	0.00474639	688.0
1797	6.88163e+02	1.79700e+03	0.00477875	688.5
1798	6.88529e+02	1.79800e+03	0.00480638	689.0
1799	6.88897e+02	1.79900e+03	0.00483031	689.5
1800	6.89260e+02	1.80000e+03	0.00484977	690.0
1801	6.89598e+02	1.80100e+03	0.00485835	690.5
1802	6.89928e+02	1.80200e+03	0.00485615	691.0
1803	6.90252e+02	1.80300e+03	0.00484704	691.5
1804	6.90571e+02	1.80400e+03	0.00481009	692.0
1805	6.90876e+02	1.80500e+03	0.00478176	692.5
1806	6.91199e+02	1.80600e+03	0.00475155	693.0
1807	6.91479e+02	1.80700e+03	0.00471995	693.5
1808	6.91763e+02	1.80800e+03	0.00468653	694.0
1809	6.92059e+02	1.80900e+03	0.00466432	694.5
1810	6.92338e+02	1.81000e+03	0.00464951	695.0
1811	6.92568e+02	1.81100e+03	0.00463894	695.5
1812	6.92810e+02	1.81200e+03	0.00464483	696.0
1813	6.93043e+02	1.81300e+03	0.00463942	696.5
1814	6.93281e+02	1.81400e+03	0.00462786	697.0
1815	6.93492e+02	1.81500e+03	0.00461248	697.5
1816	6.93712e+02	1.81600e+03	0.00458309	698.0
1817	6.93942e+02	1.81700e+03	0.00455191	698.5
1818	6.94151e+02	1.81800e+03	0.0045208	699.0
1819	6.94363e+02	1.81900e+03	0.00449062	699.5
1820	6.94576e+02	1.82000e+03	0.0044497	700.0
1821	6.94768e+02	1.82100e+03	0.00442336	700.0
1822	6.94940e+02	1.82200e+03	0.00440151	700.0
1823	6.95106e+02	1.82300e+03	0.00438121	700.0
1824	6.95272e+02	1.82400e+03	0.00438321	700.0
1825	6.95436e+02	1.82500e+03	0.00438055	700.0
1826	6.95601e+02	1.82600e+03	0.00438179	700.0
1827	6.95756e+02	1.82700e+03	0.00438539	700.0
1828	6.95917e+02	1.82800e+03	0.00439375	700.0
1829	6.96075e+02	1.82900e+03	0.00439634	700.0
1830	6.96220e+02	1.83000e+03	0.00439619	700.0
1831	6.96375e+02	1.83100e+03	0.00439486	700.0
1832	6.96520e+02	1.83200e+03	0.00439094	700.0
1833	6.96659e+02	1.83300e+03	0.00439208	700.0
1834	6.96815e+02	1.83400e+03	0.00439574	700.0
1835	6.96935e+02	1.83500e+03	0.00439922	700.0
1836	6.97054e+02	1.83600e+03	0.00440567	700.0
1837	6.97174e+02	1.83700e+03	0.00441124	700.0
1838	6.97295e+02	1.83800e+03	0.00441676	700.0
1839	6.97389e+02	1.83900e+03	0.00442214	700.0
1840	6.97495e+02	1.84000e+03	0.00443311	700.0
1841	6.97599e+02	1.84100e+03	0.00444965	700.0
1842	6.97691e+02	1.84200e+03	0.00447076	700.0
1843	6.97762e+02	1.84300e+03	0.00449296	700.0
1844	6.97850e+02	1.84400e+03	0.00452366	700.0
1845	6.97919e+02	1.84500e+03	0.00454861	700.0
1846	6.97999e+02	1.84600e+03	0.00456997	700.0
1847	6.98078e+02	1.84700e+03	0.00458932	700.0
1848	6.98150e+02	1.84800e+03	0.00459818	700.0
1849	6.98224e+02	1.84900e+03	0.0046049	700.0
1850	6.98301e+02	1.85000e+03	0.00460939	700.0
1851	6.98357e+02	1.85100e+03	0.00461308	700.0
1852	6.98407e+02	1.85200e+03	0.00460339	700.0
1853	6.98481e+02	1.85300e+03	0.0045966	700.0
1854	6.98526e+02	1.85400e+03	0.0045864	700.0
1855	6.98587e+02	1.85500e+03	0.00457353	700.0
1856	6.98633e+02	1.85600e+03	0.00454926	700.0
1857	6.98698e+02	1.85700e+03	0.00452556	700.0
1858	6.98746e+02	1.85800e+03	0.00450346	700.0
1859	6.98803e+02	1.85900e+03	0.00448259	700.0
1860	6.98871e+02	1.86000e+03	0.00445527	700.0
1861	6.98924e+02	1.86100e+03	0.0044348	700.0
1862	6.98977e+02	1.86200e+03	0.00441404	700.0
1863	6.99024e+02	1.86300e+03	0.00439146	700.0
1864	6.99050e+02	1.86400e+03	0.00437421	700.0
1865	6.99067e+02	1.86500e+03	0.00435298	700.0
1866	6.99101e+02	1.86600e+03	0.00433183	700.0
1867	6.99134e+02	1.86700e+03	0.00431138	700.0
1868	6.99182e+02	1.86800e+03	0.00428909	700.0
1869	6.99222e+02	1.86900e+03	0.00427204	700.0
1870	6.99264e+02	1.87000e+03	0.00425789	700.0
1871	6.99302e+02	1.87100e+03	0.00424532	700.0
1872	6.99356e+02	1.87200e+03	0.00424354	700.0
1873	6.99382e+02	1.87300e+03	0.00423757	700.0
1874	6.99423e+02	1.87400e+03	0.00422912	700.0
1875	6.99449e+02	1.87500e+03	0.0042186	700.0
1876	6.99485e+02	1.87600e+03	0.00421073	700.0
1877	6.99520e+02	1.87700e+03	0.00420863	700.0
1878	6.99545e+02	1.87800e+03	0.00421414	700.0
1879	6.99570e+02	1.87900e+03	0.0042239	700.0
1880	6.99607e+02	1.88000e+03	0.00425092	700.0
1881	6.99636e+02	1.88100e+03	0.00428082	700.0
1882	6.99682e+02	1.88200e+03	0.00431626	700.0
1883	6.99698e+02	1.88300e+03	0.00435538	700.0
1884	6.99725e+02	1.88400e+03	0.00441829	700.0
1885	6.99755e+02	1.88500e+03	0.00446696	700.0
1886	6.99782e+02	1.88600e+03	0.00450919	700.0
1887	6.99812e+02	1.88700e+03	0.00454744	700.0
1888	6.99845e+02	1.88800e+03	0.0045598	700.0
1889	6.99867e+02	1.88900e+03	0.00456413	700.0
1890	6.99893e+02	1.89000e+03	0.00456026	700.0
1891	6.99915e+02	1.89100e+03	0.00455111	700.0
1892	6.99938e+02	1.89200e+03	0.00450093	700.0
1893	6.99953e+02	1.89300e+03	0.00446934	700.0
1894	6.99987e+02	1.89400e+03	0.00444016	700.0
1895	6.99994e+02	1.89500e+03	0.00441052	700.0
1896	7.00029e+02	1.89600e+03	0.00437694	700.0
1897	7.00043e+02	1.89700e+03	0.00434233	700.0
1898	7.00072e+02	1.89800e+03	0.00430734	700.0
1899	7.00097e+02	1.89900e+03	0.00427316	700.0
1900	7.00105e+02	1.90000e+03	0.00424207	700.0
1901	7.00122e+02	1.90100e+03	0.00421532	700.0
1902	7.00156e+02	1.90200e+03	0.00419296	700.0
1903	7.00165e+02	1.90300e+03	0.00417366	700.0
1904	7.00182e+02	1.90400e+03	0.00417142	700.0
1905	7.00196e+02	1.90500e+03	0.00416779	700.0
1906	7.00218e+02	1.90600e+03	0.00416765	700.0
1907	7.00237e+02	1.90700e+03	0.0041704	700.0
1908	7.00251e+02	1.90800e+03	0.00419032	700.0
1909	7.00268e+02	1.90900e+03	0.00420657	700.0
1910	7.00277e+02	1.91000e+03	0.00422618	700.0
1911	7.00296e+02	1.91100e+03	0.00424834	700.0
1912	7.00300e+02	1.91200e+03	0.00427385	700.0
1913	7.00302e+02	1.91300e+03	0.00429133	700.0
1914	7.00320e+02	1.91400e+03	0.00430201	700.0
1915	7.00344e+02	1.91500e+03	0.0043069	700.0
1916	7.00351e+02	1.91600e+03	0.00429031	700.0
1917	7.00362e+02	1.91700e+03	0.00427592	700.0
1918	7.00380e+02	1.91800e+03	0.00425977	700.0
1919	7.00394e+02	1.91900e+03	0.00424213	700.0
1920	7.00395e+02	1.92000e+03	0.00420948	700.0
1921	7.00418e+02	1.92100e+03	0.00419015	700.0
1922	7.00428e+02	1.92200e+03	0.00417633	700.0
1923	7.00430e+02	1.92300e+03	0.00416521	700.0
1924	7.00450e+02	1.92400e+03	0.00417213	700.0
1925	7.00459e+02	1.92500e+03	0.00417628	700.0
1926	7.00467e+02	1.92600e+03	0.00418285	700.0
1927	7.00475e+02	1.92700e+03	0.00419158	700.0
1928	7.00493e+02	1.92800e+03	0.00421353	700.0
1929	7.00495e+02	1.92900e+03	0.00423011	700.0
1930	7.00505e+02	1.93000e+03	0.0042465	700.0
1931	7.00515e+02	1.93100e+03	0.00426347	700.0
1932	7.00522e+02	1.93200e+03	0.00428218	700.0
1933	7.00537e+02	1.93300e+03	0.00430036	700.0
1934	7.00537e+02	1.93400e+03	0.00432129	700.0
1935	7.00552e+02	1.93500e+03	0.00434452	700.0
1936	7.00556e+02	1.93600e+03	0.00436575	700.0
1937	7.00554e+02	1.93700e+03	0.00438357	700.0
1938	7.00565e+02	1.93800e+03	0.00439766	700.0
1939	7.00562e+02	1.93900e+03	0.0044091	700.0
1940	7.00575e+02	1.94000e+03	0.00440842	700.0
1941	7.00577e+02	1.94100e+03	0.00440633	700.0
1942	7.00586e+02	1.94200e+03	0.00440221	700.0
1943	7.00590e+02	1.94300e+03	0.00439827	700.0
1944	7.00601e+02	1.94400e+03	0.00438548	700.0
1945	7.00609e+02	1.94500e+03	0.00437929	700.0
1946	7.00623e+02	1.94600e+03	0.00437356	700.0
1947	7.00619e+02	1.94700e+03	0.00436703	700.0
1948	7.00633e+02	1.94800e+03	0.00435813	700.0
1949	7.00631e+02	1.94900e+03	0.00434094	700.0
1950	7.00640e+02	1.95000e+03	0.0043193	700.0
1951	7.00645e+02	1.95100e+03	0.00429503	700.0
1952	7.00651e+02	1.95200e+03	0.0042496	700.0
1953	7.00652e+02	1.95300e+03	0.00421088	700.0
1954	7.00669e+02	1.95400e+03	0.00417202	700.0
1955	7.00667e+02	1.95500e+03	0.00413236	700.0
1956	7.00686e+02	1.95600e+03	0.00408986	700.0
1957	7.00693e+02	1.95700e+03	0.00405485	700.0
1958	7.00695e+02	1.95800e+03	0.00402622	700.0
1959	7.00700e+02	1.95900e+03	0.00400196	700.0
1960	7.00696e+02	1.96000e+03	0.00400934	700.0
1961	7.00712e+02	1.96100e+03	0.00402325	700.0
1962	7.00715e+02	1.96200e+03	0.00404755	700.0
1963	7.00716e+02	1.96300e+03	0.00407847	700.0
1964	7.00722e+02	1.96400e+03	0.004142	700.0
1965	7.00734e+02	1.96500e+03	0.00417915	700.0
1966	7.00736e+02	1.96600e+03	0.00420649	700.0
1967	7.00742e+02	1.96700e+03	0.00423022	700.0
1968	7.00744e+02	1.96800e+03	0.0042316	700.0
1969	7.00748e+02	1.96900e+03	0.00423528	700.0
1970	7.00764e+02	1.97000e+03	0.0042355	700.0
1971	7.00767e+02	1.97100e+03	0.00423292	700.0
1972	7.00777e+02	1.97200e+03	0.00421104	700.0
1973	7.00778e+02	1.97300e+03	0.00419798	700.0
1974	7.00791e+02	1.97400e+03	0.00418597	700.0
1975	7.00788e+02	1.97500e+03	0.00417353	700.0
1976	7.00796e+02	1.97600e+03	0.00416532	700.0
1977	7.00792e+02	1.97700e+03	0.00415924	700.0
1978	7.00813e+02	1.97800e+03	0.0041519	700.0
1979	7.00815e+02	1.97900e+03	0.00414318	700.0
1980	7.00808e+02	1.98000e+03	0.00413397	700.0
1981	7.00811e+02	1.98100e+03	0.00411889	700.0
1982	7.00823e+02	1.98200e+03	0.00410122	700.0
1983	7.00837e+02	1.98300e+03	0.00408257	700.0
1984	7.00836e+02	1.98400e+03	0.00405856	700.0
1985	7.00841e+02	1.98500e+03	0.00404725	700.0
1986	7.00845e+02	1.98600e+03	0.00404254	700.0
1987	7.00849e+02	1.98700e+03	0.0040403	700.0
1988	7.00857e+02	1.98800e+03	0.00405589	700.0
1989	7.00849e+02	1.98900e+03	0.00406466	700.0
1990	7.00855e+02	1.99000e+03	0.00407264	700.0
1991	7.00859e+02	1.99100e+03	0.00408064	700.0
1992	7.00865e+02	1.99200e+03	0.00408944	700.0
1993	7.00874e+02	1.99300e+03	0.00409438	700.0
1994	7.00875e+02	1.99400e+03	0.00409986	700.0
1995	7.00881e+02	1.99500e+03	0.00410651	700.0
1996	7.00883e+02	1.99600e+03	0.00410498	700.0
1997	7.00882e+02	1.99700e+03	0.0041054	700.0
1998	7.00884e+02	1.99800e+03	0.00410531	700.0
1999	7.00896e+02	1.99900e+03	0.00410458	700.0
2000	7.00894e+02	2.00000e+03	0.00410365	700.0
2001	7.00885e+02	2.00100e+03	0.00410372	700.0
2002	7.00894e+02	2.00200e+03	0.00410414	700.0
2003	7.00901e+02	2.00300e+03	0.00410463	700.0
2004	7.00901e+02	2.00400e+03	0.00410512	700.0
2005	7.00900e+02	2.00500e+03	0.00410418	700.0
2006	7.00903e+02	2.00600e+03	0.00410211	700.0
2007	7.00902e+02	2.00700e+03	0.0040993	700.0
2008	7.00914e+02	2.00800e+03	0.00409201	700.0
2009	7.00905e+02	2.00900e+03	0.00408516	700.0
2010	7.00897e+02	2.01000e+03	0.00407788	700.0
2011	7.00914e+02	2.01100e+03	0.00407029	700.0
2012	7.00909e+02	2.01200e+03	0.00406169	700.0
2013	7.00908e+02	2.01300e+03	0.00405696	700.0
2014	7.00907e+02	2.01400e+03	0.00405543	700.0
2015	7.00914e+02	2.01500e+03	0.00405608	700.0
2016	7.00917e+02	2.01600e+03	0.00406924	700.0
2017	7.00933e+02	2.01700e+03	0.0040825	700.0
2018	7.00925e+02	2.01800e+03	0.00409906	700.0
2019	7.00917e+02	2.01900e+03	0.00411919	700.0
2020	7.00916e+02	2.02000e+03	0.00415728	700.0
2021	7.00918e+02	2.02100e+03	0.00418816	700.0
2022	7.00928e+02	2.02200e+03	0.00421558	700.0
2023	7.00934e+02	2.02300e+03	0.00424102	700.0
2024	7.00927e+02	2.02400e+03	0.00426063	700.0
2025	7.00926e+02	2.02500e+03	0.00427192	700.0
2026	7.00917e+02	2.02600e+03	0.0042767	700.0
2027	7.00924e+02	2.02700e+03	0.00427755	700.0
2028	7.00928e+02	2.02800e+03	0.00425989	700.0
2029	7.00927e+02	2.02900e+03	0.00425511	700.0
2030	7.00927e+02	2.03000e+03	0.00425163	700.0
2031	7.00934e+02	2.03100e+03	0.0042476	700.0
2032	7.00941e+02	2.03200e+03	0.00424748	700.0
2033	7.00941e+02	2.03300e+03	0.00424475	700.0
2034	7.00936e+02	2.03400e+03	0.0042409	700.0
2035	7.00939e+02	2.03500e+03	0.00423673	700.0
2036	7.00939e+02	2.03600e+03	0.00423505	700.0
2037	7.00940e+02	2.03700e+03	0.0042349	700.0
2038	7.00941e+02	2.03800e+03	0.00423317	700.0
2039	7.00939e+02	2.03900e+03	0.00422942	700.0
2040	7.00951e+02	2.04000e+03	0.00421972	700.0
2041	7.00947e+02	2.04100e+03	0.00420545	700.0
2042	7.00945e+02	2.04200e+03	0.00418977	700.0
2043	7.00938e+02	2.04300e+03	0.00417372	700.0
2044	7.00946e+02	2.04400e+03	0.00414719	700.0
2045	7.00937e+02	2.04500e+03	0.00412971	700.0
2046	7.00946e+02	2.04600e+03	0.00411448	700.0
2047	7.00956e+02	2.04700e+03	0.00409968	700.0
2048	7.00961e+02	2.04800e+03	0.0040907	700.0
2049	7.00945e+02	2.04900e+03	0.00407786	700.0
2050	7.00952e+02	2.05000e+03	0.00406809	700.0
2051	7.00957e+02	2.05100e+03	0.00406136	700.0
2052	7.00956e+02	2.05200e+03	0.00405607	700.0
2053	7.00959e+02	2.05300e+03	0.00405667	700.0
2054	7.00956e+02	2.05400e+03	0.00406183	700.0
2055	7.00956e+02	2.05500e+03	0.00406812	700.0
2056	7.00955e+02	2.05600e+03	0.00408513	700.0
2057	7.00962e+02	2.05700e+03	0.00409539	700.0
2058	7.00969e+02	2.05800e+03	0.00410364	700.0
2059	7.00961e+02	2.05900e+03	0.00411111	700.0
2060	7.00962e+02	2.06000e+03	0.00411924	700.0
2061	7.00969e+02	2.06100e+03	0.00413131	700.0
2062	7.00965e+02	2.06200e+03	0.00414491	700.0
2063	7.00971e+02	2.06300e+03	0.00415844	700.0
2064	7.00967e+02	2.06400e+03	0.00417432	700.0
2065	7.00971e+02	2.06500e+03	0.00418677	700.0
2066	7.00978e+02	2.06600e+03	0.00419732	700.0
2067	7.00975e+02	2.06700e+03	0.00420676	700.0
2068	7.00982e+02	2.06800e+03	0.00421106	700.0
2069	7.00987e+02	2.06900e+03	0.00421865	700.0
2070	7.00978e+02	2.07000e+03	0.00422983	700.0
2071	7.00975e+02	2.07100e+03	0.00424302	700.0
2072	7.00974e+02	2.07200e+03	0.00425622	700.0
2073	7.00982e+02	2.07300e+03	0.0042688	700.0
2074	7.00984e+02	2.07400e+03	0.00428048	700.0
2075	7.00987e+02	2.07500e+03	0.00429138	700.0
2076	7.00981e+02	2.07600e+03	0.00429989	700.0
2077	7.00994e+02	2.07700e+03	0.00430429	700.0
2078	7.00990e+02	2.07800e+03	0.00430425	700.0
2079	7.00987e+02	2.07900e+03	0.00430111	700.0
2080	7.00991e+02	2.08000e+03	0.00428121	700.0
2081	7.00993e+02	2.08100e+03	0.00426319	700.0
2082	7.00984e+02	2.08200e+03	0.0042429	700.0
2083	7.00990e+02	2.08300e+03	0.0042207	700.0
2084	7.00995e+02	2.08400e+03	0.00418658	700.0
2085	7.00999e+02	2.08500e+03	0.00415967	700.0
2086	7.00990e+02	2.08600e+03	0.0041361	700.0
2087	7.00992e+02	2.08700e+03	0.00411565	700.0
2088	7.00994e+02	2.08800e+03	0.00410883	700.0
2089	7.00997e+02	2.08900e+03	0.00410322	700.0
2090	7.00987e+02	2.09000e+03	0.0040998	700.0
2091	7.00994e+02	2.09100e+03	0.0040979	700.0
2092	7.00992e+02	2.09200e+03	0.00411219	700.0
2093	7.00993e+02	2.09300e+03	0.004117	700.0
2094	7.00991e+02	2.09400e+03	0.00411919	700.0
2095	7.00991e+02	2.09500e+03	0.00412048	700.0
2096	7.00991e+02	2.09600e+03	0.0041158	700.0
2097	7.00988e+02	2.09700e+03	0.00411171	700.0
2098	7.00988e+02	2.09800e+03	0.00410653	700.0
2099	7.00983e+02	2.09900e+03	0.00410048	700.0
2100	7.00993e+02	2.10000e+03	0.00408909	700.0
2101	7.00993e+02	2.10100e+03	0.00407995	700.0
2102	7.00988e+02	2.10200e+03	0.00407179	700.0
2103	7.00992e+02	2.10300e+03	0.0040648	700.0
2104	7.00995e+02	2.10400e+03	0.00406562	700.0
2105	7.00988e+02	2.10500e+03	0.0040695	700.0
2106	7.00991e+02	2.10600e+03	0.00407523	700.0
2107	7.00982e+02	2.10700e+03	0.00408211	700.0
2108	7.00985e+02	2.10800e+03	0.00410193	700.0
2109	7.00984e+02	2.10900e+03	0.00411519	700.0
2110	7.00991e+02	2.11000e+03	0.00412724	700.0
2111	7.00987e+02	2.11100e+03	0.00413917	700.0
2112	7.00983e+02	2.11200e+03	0.00414881	700.0
2113	7.00981e+02	2.11300e+03	0.00415743	700.0
2114	7.00983e+02	2.11400e+03	0.00416379	700.0
2115	7.00996e+02	2.11500e+03	0.00416836	700.0
2116	7.00996e+02	2.11600e+03	0.00416359	700.0
2117	7.00989e+02	2.11700e+03	0.00415902	700.0
2118	7.00985e+02	2.11800e+03	0.00415541	700.0
2119	7.00994e+02	2.11900e+03	0.00415307	700.0
2120	7.00997e+02	2.12000e+03	0.00414303	700.0
2121	7.00992e+02	2.12100e+03	0.00413611	700.0
2122	7.00988e+02	2.12200e+03	0.00412869	700.0
2123	7.00992e+02	2.12300e+03	0.00412041	700.0
2124	7.00994e+02	2.12400e+03	0.00411211	700.0
2125	7.00991e+02	2.12500e+03	0.00410155	700.0
2126	7.00996e+02	2.12600e+03	0.00408939	700.0
2127	7.01003e+02	2.12700e+03	0.0040762	700.0
2128	7.00993e+02	2.12800e+03	0.00405782	700.0
2129	7.00994e+02	2.12900e+03	0.00404553	700.0
2130	7.01003e+02	2.13000e+03	0.00403649	700.0
2131	7.01000e+02	2.13100e+03	0.00402764	700.0
2132	7.01002e+02	2.13200e+03	0.0040162	700.0
2133	7.00992e+02	2.13300e+03	0.00399885	700.0
2134	7.00992e+02	2.13400e+03	0.0039781	700.0
2135	7.00990e+02	2.13500e+03	0.00395638	700.0
2136	7.00998e+02	2.13600e+03	0.00393258	700.0
2137	7.00998e+02	2.13700e+03	0.00391871	700.0
2138	7.00994e+02	2.13800e+03	0.00390996	700.0
2139	7.00994e+02	2.13900e+03	0.0039032	700.0
2140	7.00993e+02	2.14000e+03	0.00391049	700.0
2141	7.00986e+02	2.14100e+03	0.00391201	700.0
2142	7.00982e+02	2.14200e+03	0.00391265	700.0
2143	7.00983e+02	2.14300e+03	0.00391317	700.0
2144	7.00983e+02	2.14400e+03	0.00391525	700.0
2145	7.00982e+02	2.14500e+03	0.00391804	700.0
2146	7.00979e+02	2.14600e+03	0.00392317	700.0
2147	7.00982e+02	2.14700e+03	0.003929	700.0
2148	7.00987e+02	2.14800e+03	0.00393397	700.0
2149	7.00968e+02	2.14900e+03	0.00393904	700.0
2150	7.00974e+02	2.15000e+03	0.00394414	700.0
2151	7.00983e+02	2.15100e+03	0.00394921	700.0
2152	7.00968e+02	2.15200e+03	0.0039565	700.0
2153	7.00971e+02	2.15300e+03	0.00396376	700.0
2154	7.00967e+02	2.15400e+03	0.00397125	700.0
2155	7.00962e+02	2.15500e+03	0.0039789	700.0
2156	7.00968e+02	2.15600e+03	0.00398878	700.0
2157	7.00964e+02	2.15700e+03	0.00399863	700.0
2158	7.00969e+02	2.15800e+03	0.00400968	700.0
2159	7.00963e+02	2.15900e+03	0.00402178	700.0
2160	7.00967e+02	2.16000e+03	0.00403832	700.0
2161	7.00962e+02	2.16100e+03	0.00405476	700.0
2162	7.00957e+02	2.16200e+03	0.00407124	700.0
2163	7.00960e+02	2.16300e+03	0.00408762	700.0
2164	7.00956e+02	2.16400e+03	0.00410514	700.0
2165	7.00956e+02	2.16500e+03	0.0041185	700.0
2166	7.00957e+02	2.16600e+03	0.00412932	700.0
2167	7.00955e+02	2.16700e+03	0.00413865	700.0
2168	7.00959e+02	2.16800e+03	0.00413751	700.0
2169	7.00960e+02	2.16900e+03	0.00413853	700.0
2170	7.00949e+02	2.17000e+03	0.00414094	700.0
2171	7.00949e+02	2.17100e+03	0.00414491	700.0
2172	7.00943e+02	2.17200e+03	0.00414507	700.0
2173	7.00946e+02	2.17300e+03	0.00414679	700.0
2174	7.00951e+02	2.17400e+03	0.00414783	700.0
2175	7.00946e+02	2.17500e+03	0.00414804	700.0
2176	7.00955e+02	2.17600e+03	0.0041516	700.0
2177	7.00945e+02	2.17700e+03	0.00415426	700.0
2178	7.00938e+02	2.17800e+03	0.00415474	700.0
2179	7.00946e+02	2.17900e+03	0.00415328	700.0
2180	7.00942e+02	2.18000e+03	0.00414812	700.0
2181	7.00938e+02	2.18100e+03	0.00414095	700.0
2182	7.00939e+02	2.18200e+03	0.00412733	700.0
2183	7.00934e+02	2.18300e+03	0.00410838	700.0
2184	7.00937e+02	2.18400e+03	0.00407642	700.0
2185	7.00932e+02	2.18500e+03	0.00404904	700.0
2186	7.00927e+02	2.18600e+03	0.00402293	700.0
2187	7.00934e+02	2.18700e+03	0.00399747	700.0
2188	7.00931e+02	2.18800e+03	0.0039714	700.0
2189	7.00921e+02	2.18900e+03	0.00395341	700.0
2190	7.00920e+02	2.19000e+03	0.0039407	700.0
2191	7.00921e+02	2.19100e+03	0.00393107	700.0
2192	7.00919e+02	2.19200e+03	0.00394067	700.0
2193	7.00920e+02	2.19300e+03	0.00394528	700.0
2194	7.00913e+02	2.19400e+03	0.00395376	700.0
2195	7.00909e+02	2.19500e+03	0.0039665	700.0
2196	7.00909e+02	2.19600e+03	0.00399004	700.0
2197	7.00902e+02	2.19700e+03	0.0040076	700.0
2198	7.00903e+02	2.19800e+03	0.00402155	700.0
2199	7.00907e+02	2.19900e+03	0.00403196	700.0
2200	7.00904e+02	2.20000e+03	0.00403157	700.0
2201	7.00896e+02	2.20100e+03	0.00402693	700.0
2202	7.00906e+02	2.20200e+03	0.00401928	700.0
2203	7.00893e+02	2.20300e+03	0.00400997	700.0
2204	7.00894e+02	2.20400e+03	0.00398489	700.0
2205	7.00888e+02	2.20500e+03	0.00397644	700.0
2206	7.00895e+02	2.20600e+03	0.00397512	700.0
2207	7.00889e+02	2.20700e+03	0.00397605	700.0
2208	7.00890e+02	2.20800e+03	0.00399313	700.0
2209	7.00889e+02	2.20900e+03	0.00400429	700.0
2210	7.00887e+02	2.21000e+03	0.00401569	700.0
2211	7.00888e+02	2.21100e+03	0.00402847	700.0
2212	7.00875e+02	2.21200e+03	0.00405064	700.0
2213	7.00882e+02	2.21300e+03	0.0040697	700.0
2214	7.00875e+02	2.21400e+03	0.00408582	700.0
2215	7.00878e+02	2.21500e+03	0.00409996	700.0
2216	7.00869e+02	2.21600e+03	0.0041088	700.0
2217	7.00876e+02	2.21700e+03	0.00411232	700.0
2218	7.00873e+02	2.21800e+03	0.00411169	700.0
2219	7.00861e+02	2.21900e+03	0.00410861	700.0
2220	7.00862e+02	2.22000e+03	0.00409307	700.0
2221	7.00872e+02	2.22100e+03	0.00408967	700.0
2222	7.00865e+02	2.22200e+03	0.00409035	700.0
2223	7.00858e+02	2.22300e+03	0.00409175	700.0
2224	7.00856e+02	2.22400e+03	0.00410092	700.0
2225	7.00851e+02	2.22500e+03	0.00410613	700.0
2226	7.00850e+02	2.22600e+03	0.00411043	700.0
2227	7.00845e+02	2.22700e+03	0.00411445	700.0
2228	7.00845e+02	2.22800e+03	0.00411711	700.0
2229	7.00854e+02	2.22900e+03	0.004118	700.0
2230	7.00848e+02	2.23000e+03	0.00411682	700.0
2231	7.00847e+02	2.23100e+03	0.00411413	700.0
2232	7.00853e+02	2.23200e+03	0.00410273	700.0
2233	7.00844e+02	2.23300e+03	0.00409152	700.0
2234	7.00839e+02	2.23400e+03	0.00407825	700.0
2235	7.00837e+02	2.23500e+03	0.00406328	700.0
2236	7.00839e+02	2.23600e+03	0.00404106	700.0
2237	7.00842e+02	2.23700e+03	0.00402515	700.0
2238	7.00839e+02	2.23800e+03	0.00401079	700.0
2239	7.00841e+02	2.23900e+03	0.00399588	700.0
2240	7.00847e+02	2.24000e+03	0.00398086	700.0
2241	7.00832e+02	2.24100e+03	0.00396414	700.0
2242	7.00832e+02	2.24200e+03	0.00394667	700.0
2243	7.00831e+02	2.24300e+03	0.00392886	700.0
2244	7.00834e+02	2.24400e+03	0.00391005	700.0
2245	7.00826e+02	2.24500e+03	0.00389383	700.0
2246	7.00829e+02	2.24600e+03	0.00387918	700.0
2247	7.00824e+02	2.24700e+03	0.00386548	700.0
2248	7.00823e+02	2.24800e+03	0.00385833	700.0
2249	7.00821e+02	2.24900e+03	0.00385005	700.0
2250	7.00814e+02	2.25000e+03	0.00383968	700.0
2251	7.00816e+02	2.25100e+03	0.00382758	700.0
2252	7.00811e+02	2.25200e+03	0.00382023	700.0
2253	7.00808e+02	2.25300e+03	0.00381345	700.0
2254	7.00803e+02	2.25400e+03	0.00381149	700.0
2255	7.00810e+02	2.25500e+03	0.00381351	700.0
2256	7.00812e+02	2.25600e+03	0.00382016	700.0
2257	7.00802e+02	2.25700e+03	0.00382547	700.0
2258	7.00790e+02	2.25800e+03	0.00383035	700.0
2259	7.00800e+02	2.25900e+03	0.00383492	700.0
2260	7.00786e+02	2.26000e+03	0.00384222	700.0
2261	7.00784e+02	2.26100e+03	0.00384512	700.0
2262	7.00783e+02	2.26200e+03	0.00384724	700.0
2263	7.00780e+02	2.26300e+03	0.00385072	700.0
2264	7.00776e+02	2.26400e+03	0.0038552	700.0
2265	7.00765e+02	2.26500e+03	0.0038633	700.0
2266	7.00758e+02	2.26600e+03	0.003872	700.0
2267	7.00763e+02	2.26700e+03	0.00388068	700.0
2268	7.00768e+02	2.26800e+03	0.00389661	700.0
2269	7.00761e+02	2.26900e+03	0.00390621	700.0
2270	7.00751e+02	2.27000e+03	0.00391352	700.0
2271	7.00755e+02	2.27100e+03	0.00391989	700.0
2272	7.00755e+02	2.27200e+03	0.0039193	700.0
2273	7.00753e+02	2.27300e+03	0.00392125	700.0
2274	7.00744e+02	2.27400e+03	0.00392311	700.0
2275	7.00748e+02	2.27500e+03	0.00392457	700.0
2276	7.00745e+02	2.27600e+03	0.00392325	700.0
2277	7.00740e+02	2.27700e+03	0.00392187	700.0
2278	7.00739e+02	2.27800e+03	0.00391957	700.0
2279	7.00742e+02	2.27900e+03	0.00391668	700.0
2280	7.00733e+02	2.28000e+03	0.00391633	700.0
2281	7.00728e+02	2.28100e+03	0.00391905	700.0
2282	7.00719e+02	2.28200e+03	0.00392188	700.0
2283	7.00730e+02	2.28300e+03	0.00392442	700.0
2284	7.00729e+02	2.28400e+03	0.00393136	700.0
2285	7.00730e+02	2.28500e+03	0.00393431	700.0
2286	7.00723e+02	2.28600e+03	0.00393555	700.0
2287	7.00721e+02	2.28700e+03	0.00393592	700.0
2288	7.00718e+02	2.28800e+03	0.00393044	700.0
2289	7.00724e+02	2.28900e+03	0.00392589	700.0
2290	7.00714e+02	2.29000e+03	0.00392039	700.0
2291	7.00714e+02	2.29100e+03	0.00391404	700.0
2292	7.00727e+02	2.29200e+03	0.00390263	700.0
2293	7.00710e+02	2.29300e+03	0.00389267	700.0
2294	7.00708e+02	2.29400e+03	0.00388279	700.0
2295	7.00712e+02	2.29500e+03	0.00387284	700.0
2296	7.00715e+02	2.29600e+03	0.00386241	700.0
2297	7.00713e+02	2.29700e+03	0.00385392	700.0
2298	7.00707e+02	2.29800e+03	0.00384657	700.0
2299	7.00712e+02	2.29900e+03	0.00383989	700.0
2300	7.00707e+02	2.30000e+03	0.00383752	700.0
2301	7.00703e+02	2.30100e+03	0.0038341	700.0
2302	7.00700e+02	2.30200e+03	0.00383107	700.0
2303	7.00704e+02	2.30300e+03	0.00382846	700.0
2304	7.00709e+02	2.30400e+03	0.00383195	700.0
2305	7.00707e+02	2.30500e+03	0.00383857	700.0
2306	7.00695e+02	2.30600e+03	0.00384798	700.0
2307	7.00698e+02	2.30700e+03	0.00385824	700.0
2308	7.00698e+02	2.30800e+03	0.00387657	700.0
2309	7.00696e+02	2.30900e+03	0.00389067	700.0
2310	7.00698e+02	2.31000e+03	0.00390361	700.0
2311	7.00691e+02	2.31100e+03	0.00391603	700.0
2312	7.00691e+02	2.31200e+03	0.00392727	700.0
2313	7.00699e+02	2.31300e+03	0.00394102	700.0
2314	7.00690e+02	2.31400e+03	0.00395598	700.0
2315	7.00691e+02	2.31500e+03	0.00396989	700.0
2316	7.00686e+02	2.31600e+03	0.00397769	700.0
2317	7.00691e+02	2.31700e+03	0.00398266	700.0
2318	7.00681e+02	2.31800e+03	0.00398428	700.0
2319	7.00680e+02	2.31900e+03	0.00398351	700.0
2320	7.00680e+02	2.32000e+03	0.00396992	700.0
2321	7.00681e+02	2.32100e+03	0.00395994	700.0
2322	7.00676e+02	2.32200e+03	0.0039492	700.0
2323	7.00670e+02	2.32300e+03	0.00393748	700.0
2324	7.00678e+02	2.32400e+03	0.00391982	700.0
2325	7.00671e+02	2.32500e+03	0.00390342	700.0
2326	7.00666e+02	2.32600e+03	0.00388343	700.0
2327	7.00657e+02	2.32700e+03	0.00386057	700.0
2328	7.00669e+02	2.32800e+03	0.00383605	700.0
2329	7.00673e+02	2.32900e+03	0.00381446	700.0
2330	7.00666e+02	2.33000e+03	0.0037949	700.0
2331	7.00668e+02	2.33100e+03	0.00377669	700.0
2332	7.00659e+02	2.33200e+03	0.00376993	700.0
2333	7.00661e+02	2.33300e+03	0.00376784	700.0
2334	7.00657e+02	2.33400e+03	0.00376828	700.0
2335	7.00656e+02	2.33500e+03	0.00376992	700.0
2336	7.00653e+02	2.33600e+03	0.00378617	700.0
2337	7.00650e+02	2.33700e+03	0.00379178	700.0
2338	7.00646e+02	2.33800e+03	0.00379529	700.0
2339	7.00641e+02	2.33900e+03	0.00380025	700.0
2340	7.00645e+02	2.34000e+03	0.00380711	700.0
2341	7.00652e+02	2.34100e+03	0.00381999	700.0
2342	7.00651e+02	2.34200e+03	0.00383518	700.0
2343	7.00644e+02	2.34300e+03	0.00385055	700.0
2344	7.00648e+02	2.34400e+03	0.0038767	700.0
2345	7.00639e+02	2.34500e+03	0.00389547	700.0
2346	7.00647e+02	2.34600e+03	0.00391203	700.0
2347	7.00644e+02	2.34700e+03	0.00392782	700.0
2348	7.00633e+02	2.34800e+03	0.00393905	700.0
2349	7.00627e+02	2.34900e+03	0.00395207	700.0
2350	7.00638e+02	2.35000e+03	0.00396469	700.0
2351	7.00629e+02	2.35100e+03	0.00397677	700.0
2352	7.00635e+02	2.35200e+03	0.00398488	700.0
2353	7.00635e+02	2.35300e+03	0.00399138	700.0
2354	7.00622e+02	2.35400e+03	0.00399507	700.0
2355	7.00631e+02	2.35500e+03	0.0039966	700.0
2356	7.00621e+02	2.35600e+03	0.00399021	700.0
2357	7.00627e+02	2.35700e+03	0.00398856	700.0
2358	7.00631e+02	2.35800e+03	0.00398766	700.0
2359	7.00609e+02	2.35900e+03	0.00398582	700.0
2360	7.00611e+02	2.36000e+03	0.00398017	700.0
2361	7.00611e+02	2.36100e+03	0.0039746	700.0
2362	7.00618e+02	2.36200e+03	0.00396773	700.0
2363	7.00614e+02	2.36300e+03	0.00395973	700.0
2364	7.00617e+02	2.36400e+03	0.00394767	700.0
2365	7.00611e+02	2.36500e+03	0.00393636	700.0
2366	7.00600e+02	2.36600e+03	0.00392324	700.0
2367	7.00607e+02	2.36700e+03	0.00390723	700.0
2368	7.00610e+02	2.36800e+03	0.00388432	700.0
2369	7.00612e+02	2.36900e+03	0.00386542	700.0
2370	7.00609e+02	2.37000e+03	0.00384978	700.0
2371	7.00604e+02	2.37100e+03	0.0038363	700.0
2372	7.00605e+02	2.37200e+03	0.00382892	700.0
2373	7.00601e+02	2.37300e+03	0.00382884	700.0
2374	7.00599e+02	2.37400e+03	0.00383729	700.0
2375	7.00596e+02	2.37500e+03	0.00385113	700.0
2376	7.00603e+02	2.37600e+03	0.00388442	700.0
2377	7.00600e+02	2.37700e+03	0.0039057	700.0
2378	7.00603e+02	2.37800e+03	0.00392244	700.0
2379	7.00597e+02	2.37900e+03	0.00393677	700.0
2380	7.00602e+02	2.38000e+03	0.00394015	700.0
2381	7.00597e+02	2.38100e+03	0.00393904	700.0
2382	7.00595e+02	2.38200e+03	0.00393437	700.0
2383	7.00590e+02	2.38300e+03	0.00392914	700.0
2384	7.00597e+02	2.38400e+03	0.00390879	700.0
2385	7.00593e+02	2.38500e+03	0.00389718	700.0
2386	7.00584e+02	2.38600e+03	0.00388561	700.0
2387	7.00590e+02	2.38700e+03	0.00387183	700.0
2388	7.00586e+02	2.38800e+03	0.00385664	700.0
2389	7.00592e+02	2.38900e+03	0.00383844	700.0
2390	7.00585e+02	2.39000e+03	0.0038207	700.0
2391	7.00589e+02	2.39100e+03	0.00380445	700.0
2392	7.00589e+02	2.39200e+03	0.00379019	700.0
2393	7.00583e+02	2.39300e+03	0.0037846	700.0
2394	7.00579e+02	2.39400e+03	0.00378262	700.0
2395	7.00586e+02	2.39500e+03	0.00378228	700.0
2396	7.00588e+02	2.39600e+03	0.00379972	700.0
2397	7.00576e+02	2.39700e+03	0.00380841	700.0
2398	7.00584e+02	2.39800e+03	0.00381845	700.0
2399	7.00587e+02	2.39900e+03	0.00383057	700.0
2400	7.00581e+02	2.40000e+03	0.00384644	700.0
2401	7.00580e+02	2.40100e+03	0.00386251	700.0
2402	7.00577e+02	2.40200e+03	0.00387301	700.0
2403	7.00582e+02	2.40300e+03	0.00387837	700.0
2404	7.00582e+02	2.40400e+03	0.00387793	700.0
2405	7.00583e+02	2.40500e+03	0.00387117	700.0
2406	7.00582e+02	2.40600e+03	0.00386069	700.0
2407	7.00585e+02	2.40700e+03	0.00384963	700.0
2408	7.00572e+02	2.40800e+03	0.0038249	700.0
2409	7.00576e+02	2.40900e+03	0.00381283	700.0
2410	7.00581e+02	2.41000e+03	0.00380479	700.0
2411	7.00578e+02	2.41100e+03	0.00379849	700.0
2412	7.00574e+02	2.41200e+03	0.00381052	700.0
2413	7.00575e+02	2.41300e+03	0.00381887	700.0
2414	7.00574e+02	2.41400e+03	0.00382962	700.0
2415	7.00574e+02	2.41500e+03	0.00384282	700.0
2416	7.00566e+02	2.41600e+03	0.00386979	700.0
2417	7.00554e+02	2.41700e+03	0.00389382	700.0
2418	7.00566e+02	2.41800e+03	0.00391865	700.0
2419	7.00572e+02	2.41900e+03	0.00394439	700.0
2420	7.00562e+02	2.42000e+03	0.00397219	700.0
2421	7.00556e+02	2.42100e+03	0.00398976	700.0
2422	7.00559e+02	2.42200e+03	0.00400032	700.0
2423	7.00560e+02	2.42300e+03	0.0040076	700.0
2424	7.00561e+02	2.42400e+03	0.0039951	700.0
2425	7.00562e+02	2.42500e+03	0.00398638	700.0
2426	7.00561e+02	2.42600e+03	0.00397644	700.0
2427	7.00553e+02	2.42700e+03	0.0039659	700.0
2428	7.00555e+02	2.42800e+03	0.00395111	700.0
2429	7.00557e+02	2.42900e+03	0.00394666	700.0
2430	7.00552e+02	2.43000e+03	0.00394909	700.0
2431	7.00549e+02	2.43100e+03	0.00395624	700.0
2432	7.00550e+02	2.43200e+03	0.00398504	700.0
2433	7.00553e+02	2.43300e+03	0.00400736	700.0
2434	7.00559e+02	2.43400e+03	0.00402938	700.0
2435	7.00553e+02	2.43500e+03	0.00405174	700.0
2436	7.00556e+02	2.43600e+03	0.00407856	700.0
2437	7.00557e+02	2.43700e+03	0.00409495	700.0
2438	7.00556e+02	2.43800e+03	0.00410375	700.0
2439	7.00551e+02	2.43900e+03	0.00410774	700.0
2440	7.00556e+02	2.44000e+03	0.00408434	700.0
2441	7.00551e+02	2.44100e+03	0.00406387	700.0
2442	7.00550e+02	2.44200e+03	0.00404092	700.0
2443	7.00552e+02	2.44300e+03	0.0040161	700.0
2444	7.00542e+02	2.44400e+03	0.00397816	700.0
2445	7.00547e+02	2.44500e+03	0.00395588	700.0
2446	7.00545e+02	2.44600e+03	0.00394128	700.0
2447	7.00548e+02	2.44700e+03	0.00393077	700.0
2448	7.00552e+02	2.44800e+03	0.00394683	700.0
2449	7.00545e+02	2.44900e+03	0.00395853	700.0
2450	7.00549e+02	2.45000e+03	0.00397278	700.0
2451	7.00547e+02	2.45100e+03	0.00398941	700.0
2452	7.00538e+02	2.45200e+03	0.00402077	700.0
2453	7.00551e+02	2.45300e+03	0.00404189	700.0
2454	7.00542e+02	2.45400e+03	0.00405956	700.0
2455	7.00553e+02	2.45500e+03	0.00407571	700.0
2456	7.00544e+02	2.45600e+03	0.00408169	700.0
2457	7.00542e+02	2.45700e+03	0.00408833	700.0
2458	7.00541e+02	2.45800e+03	0.00409333	700.0
2459	7.00540e+02	2.45900e+03	0.0040971	700.0
2460	7.00544e+02	2.46000e+03	0.00409205	700.0
2461	7.00542e+02	2.46100e+03	0.00409118	700.0
2462	7.00550e+02	2.46200e+03	0.00409079	700.0
2463	7.00547e+02	2.46300e+03	0.00409015	700.0
2464	7.00538e+02	2.46400e+03	0.00409427	700.0
2465	7.00548e+02	2.46500e+03	0.00410124	700.0
2466	7.00544e+02	2.46600e+03	0.00411057	700.0
2467	7.00533e+02	2.46700e+03	0.00412203	700.0
2468	7.00548e+02	2.46800e+03	0.00413943	700.0
2469	7.00538e+02	2.46900e+03	0.00414977	700.0
2470	7.00543e+02	2.47000e+03	0.00415639	700.0
2471	7.00539e+02	2.47100e+03	0.00416101	700.0
2472	7.00544e+02	2.47200e+03	0.0041583	700.0
2473	7.00528e+02	2.47300e+03	0.00415692	700.0
2474	7.00529e+02	2.47400e+03	0.00415472	700.0
2475	7.00543e+02	2.47500e+03	0.00415181	700.0
2476	7.00544e+02	2.47600e+03	0.00414422	700.0
2477	7.00536e+02	2.47700e+03	0.00413973	700.0
2478	7.00527e+02	2.47800e+03	0.00413607	700.0
2479	7.00531e+02	2.47900e+03	0.00413266	700.0
2480	7.00539e+02	2.48000e+03	0.00413134	700.0
2481	7.00543e+02	2.48100e+03	0.00412955	700.0
2482	7.00534e+02	2.48200e+03	0.00412798	700.0
2483	7.00525e+02	2.48300e+03	0.00412664	700.0
2484	7.00526e+02	2.48400e+03	0.0041267	700.0
2485	7.00532e+02	2.48500e+03	0.00412664	700.0
2486	7.00530e+02	2.48600e+03	0.00412733	700.0
2487	7.00530e+02	2.48700e+03	0.00412874	700.0
2488	7.00523e+02	2.48800e+03	0.00413308	700.0
2489	7.00534e+02	2.48900e+03	0.00413756	700.0
2490	7.00524e+02	2.49000e+03	0.00414228	700.0
2491	7.00521e+02	2.49100e+03	0.00414704	700.0
2492	7.00521e+02	2.49200e+03	0.00415352	700.0
2493	7.00523e+02	2.49300e+03	0.00415742	700.0
2494	7.00526e+02	2.49400e+03	0.00415981	700.0
2495	7.00521e+02	2.49500e+03	0.00416126	700.0
2496	7.00523e+02	2.49600e+03	0.00415689	700.0
2497	7.00521e+02	2.49700e+03	0.00415573	700.0
2498	7.00531e+02	2.49800e+03	0.00415685	700.0
2499	7.00520e+02	2.49900e+03	0.00415905	700.0
2500	7.00518e+02	2.50000e+03	0.00416252	700.0
2501	7.00527e+02	2.50100e+03	0.00416616	700.0
2502	7.00523e+02	2.50200e+03	0.00416679	700.0
2503	7.00515e+02	2.50300e+03	0.00416336	700.0
2504	7.00519e+02	2.50400e+03	0.00415118	700.0
2505	7.00520e+02	2.50500e+03	0.00413403	700.0
2506	7.00517e+02	2.50600e+03	0.00411302	700.0
2507	7.00513e+02	2.50700e+03	0.00408973	700.0
2508	7.00519e+02	2.50800e+03	0.0040459	700.0
2509	7.00520e+02	2.50900e+03	0.00401401	700.0
2510	7.00513e+02	2.51000e+03	0.00398467	700.0
2511	7.00510e+02	2.51100e+03	0.00395431	700.0
2512	7.00512e+02	2.51200e+03	0.00392802	700.0
2513	7.00518e+02	2.51300e+03	0.00390503	700.0
2514	7.00516e+02	2.51400e+03	0.00388746	700.0
2515	7.00508e+02	2.51500e+03	0.00387382	700.0
2516	7.00510e+02	2.51600e+03	0.00387669	700.0
2517	7.00517e+02	2.51700e+03	0.00388125	700.0
2518	7.00513e+02	2.51800e+03	0.00389064	700.0
2519	7.00505e+02	2.51900e+03	0.0039035	700.0
2520	7.00507e+02	2.52000e+03	0.00393707	700.0
2521	7.00509e+02	2.52100e+03	0.00396015	700.0
2522	7.00504e+02	2.52200e+03	0.00398023	700.0
2523	7.00510e+02	2.52300e+03	0.00399904	700.0
2524	7.00504e+02	2.52400e+03	0.00401166	700.0
2525	7.00503e+02	2.52500e+03	0.00402326	700.0
2526	7.00508e+02	2.52600e+03	0.00403515	700.0
2527	7.00505e+02	2.52700e+03	0.00404686	700.0
2528	7.00507e+02	2.52800e+03	0.00403926	700.0
2529	7.00505e+02	2.52900e+03	0.0040308	700.0
2530	7.00502e+02	2.53000e+03	0.00401902	700.0
2531	7.00496e+02	2.53100e+03	0.00400475	700.0
2532	7.00506e+02	2.53200e+03	0.00397656	700.0
2533	7.00500e+02	2.53300e+03	0.00395888	700.0
2534	7.00494e+02	2.53400e+03	0.00394489	700.0
2535	7.00492e+02	2.53500e+03	0.00393121	700.0
2536	7.00496e+02	2.53600e+03	0.00392003	700.0
2537	7.00490e+02	2.53700e+03	0.0039075	700.0
2538	7.00488e+02	2.53800e+03	0.00389496	700.0
2539	7.00484e+02	2.53900e+03	0.00388253	700.0
2540	7.00487e+02	2.54000e+03	0.00387382	700.0
2541	7.00494e+02	2.54100e+03	0.00386992	700.0
2542	7.00485e+02	2.54200e+03	0.00387143	700.0
2543	7.00481e+02	2.54300e+03	0.0038753	700.0
2544	7.00492e+02	2.54400e+03	0.003891	700.0
2545	7.00482e+02	2.54500e+03	0.00390417	700.0
2546	7.00485e+02	2.54600e+03	0.00391837	700.0
2547	7.00487e+02	2.54700e+03	0.00393354	700.0
2548	7.00482e+02	2.54800e+03	0.00395529	700.0
2549	7.00482e+02	2.54900e+03	0.00397167	700.0
2550	7.00479e+02	2.55000e+03	0.00398583	700.0
2551	7.00478e+02	2.55100e+03	0.00399971	700.0
2552	7.00475e+02	2.55200e+03	0.00401096	700.0
2553	7.00476e+02	2.55300e+03	0.00402255	700.0
2554	7.00474e+02	2.55400e+03	0.00403189	700.0
2555	7.00472e+02	2.55500e+03	0.00403944	700.0
2556	7.00474e+02	2.55600e+03	0.00404122	700.0
2557	7.00478e+02	2.55700e+03	0.0040429	700.0
2558	7.00479e+02	2.55800e+03	0.00404659	700.0
2559	7.00482e+02	2.55900e+03	0.00405205	700.0
2560	7.00479e+02	2.56000e+03	0.00405206	700.0
2561	7.00477e+02	2.56100e+03	0.00405502	700.0
2562	7.00473e+02	2.56200e+03	0.0040586	700.0
2563	7.00468e+02	2.56300e+03	0.00406222	700.0
2564	7.00477e+02	2.56400e+03	0.0040702	700.0
2565	7.00477e+02	2.56500e+03	0.00407669	700.0
2566	7.00466e+02	2.56600e+03	0.00408322	700.0
2567	7.00468e+02	2.56700e+03	0.00409006	700.0
2568	7.00470e+02	2.56800e+03	0.00409241	700.0
2569	7.00463e+02	2.56900e+03	0.00409055	700.0
2570	7.00473e+02	2.57000e+03	0.00408429	700.0
2571	7.00469e+02	2.57100e+03	0.0040749	700.0
2572	7.00468e+02	2.57200e+03	0.00405653	700.0
2573	7.00469e+02	2.57300e+03	0.00404478	700.0
2574	7.00463e+02	2.57400e+03	0.00403566	700.0
2575	7.00463e+02	2.57500e+03	0.00402782	700.0
2576	7.00466e+02	2.57600e+03	0.00402864	700.0
2577	7.00473e+02	2.57700e+03	0.00403367	700.0
2578	7.00457e+02	2.57800e+03	0.00404143	700.0
2579	7.00461e+02	2.57900e+03	0.00405009	700.0
2580	7.00459e+02	2.58000e+03	0.00406851	700.0
2581	7.00459e+02	2.58100e+03	0.00407703	700.0
2582	7.00461e+02	2.58200e+03	0.0040818	700.0
2583	7.00463e+02	2.58300e+03	0.00408602	700.0
2584	7.00465e+02	2.58400e+03	0.00408317	700.0
2585	7.00460e+02	2.58500e+03	0.00408333	700.0
2586	7.00451e+02	2.58600e+03	0.00408256	700.0
2587	7.00455e+02	2.58700e+03	0.00408087	700.0
2588	7.00456e+02	2.58800e+03	0.0040796	700.0
2589	7.00459e+02	2.58900e+03	0.0040787	700.0
2590	7.00461e+02	2.59000e+03	0.00407831	700.0
2591	7.00463e+02	2.59100e+03	0.00407834	700.0
2592	7.00466e+02	2.59200e+03	0.00408079	700.0
2593	7.00455e+02	2.59300e+03	0.00408402	700.0
2594	7.00459e+02	2.59400e+03	0.00408786	700.0
2595	7.00460e+02	2.59500e+03	0.00409198	700.0
2596	7.00458e+02	2.59600e+03	0.00409745	700.0
2597	7.00457e+02	2.59700e+03	0.00409915	700.0
2598	7.00456e+02	2.59800e+03	0.00409807	700.0
2599	7.00452e+02	2.59900e+03	0.00409521	700.0
2600	7.00456e+02	2.60000e+03	0.00408267	700.0
2601	7.00456e+02	2.60100e+03	0.00407154	700.0
2602	7.00455e+02	2.60200e+03	0.00405997	700.0
2603	7.00459e+02	2.60300e+03	0.00404802	700.0
2604	7.00448e+02	2.60400e+03	0.00402741	700.0
2605	7.00450e+02	2.60500e+03	0.00400833	700.0
2606	7.00445e+02	2.60600e+03	0.00398969	700.0
2607	7.00458e+02	2.60700e+03	0.00397186	700.0
2608	7.00456e+02	2.60800e+03	0.00396256	700.0
2609	7.00452e+02	2.60900e+03	0.00395965	700.0
2610	7.00457e+02	2.61000e+03	0.00396046	700.0
2611	7.00454e+02	2.61100e+03	0.00396317	700.0
2612	7.00454e+02	2.61200e+03	0.00398234	700.0
2613	7.00451e+02	2.61300e+03	0.0039923	700.0
2614	7.00450e+02	2.61400e+03	0.00400015	700.0
2615	7.00448e+02	2.61500e+03	0.00400753	700.0
2616	7.00447e+02	2.61600e+03	0.00401149	700.0
2617	7.00443e+02	2.61700e+03	0.00401574	700.0
2618	7.00448e+02	2.61800e+03	0.0040193	700.0
2619	7.00449e+02	2.61900e+03	0.00402233	700.0
2620	7.00446e+02	2.62000e+03	0.00402188	700.0
2621	7.00441e+02	2.62100e+03	0.00402226	700.0
2622	7.00449e+02	2.62200e+03	0.00402181	700.0
2623	7.00454e+02	2.62300e+03	0.00402052	700.0
2624	7.00440e+02	2.62400e+03	0.00401806	700.0
2625	7.00449e+02	2.62500e+03	0.0040206	700.0
2626	7.00444e+02	2.62600e+03	0.00402922	700.0
2627	7.00443e+02	2.62700e+03	0.00404154	700.0
2628	7.00440e+02	2.62800e+03	0.00406309	700.0
2629	7.00444e+02	2.62900e+03	0.004083	700.0
2630	7.00441e+02	2.63000e+03	0.00410344	700.0
2631	7.00435e+02	2.63100e+03	0.00412438	700.0
2632	7.00436e+02	2.63200e+03	0.00415364	700.0
2633	7.00441e+02	2.63300e+03	0.00417653	700.0
2634	7.00435e+02	2.63400e+03	0.00419652	700.0
2635	7.00436e+02	2.63500e+03	0.00421503	700.0
2636	7.00442e+02	2.63600e+03	0.00422484	700.0
2637	7.00442e+02	2.63700e+03	0.00423443	700.0
2638	7.00437e+02	2.63800e+03	0.00423917	700.0
2639	7.00430e+02	2.63900e+03	0.00423951	700.0
2640	7.00433e+02	2.64000e+03	0.00422627	700.0
2641	7.00432e+02	2.64100e+03	0.0042165	700.0
2642	7.00430e+02	2.64200e+03	0.00420566	700.0
2643	7.00430e+02	2.64300e+03	0.00419351	700.0
2644	7.00428e+02	2.64400e+03	0.00416918	700.0
2645	7.00426e+02	2.64500e+03	0.00414755	700.0
2646	7.00432e+02	2.64600e+03	0.00412454	700.0
2647	7.00435e+02	2.64700e+03	0.00410002	700.0
2648	7.00430e+02	2.64800e+03	0.00406825	700.0
2649	7.00426e+02	2.64900e+03	0.00403886	700.0
2650	7.00427e+02	2.65000e+03	0.0040102	700.0
2651	7.00426e+02	2.65100e+03	0.00398203	700.0
2652	7.00427e+02	2.65200e+03	0.00395733	700.0
2653	7.00427e+02	2.65300e+03	0.00393786	700.0
2654	7.00418e+02	2.65400e+03	0.00392321	700.0
2655	7.00421e+02	2.65500e+03	0.00391175	700.0
2656	7.00417e+02	2.65600e+03	0.00391971	700.0
2657	7.00424e+02	2.65700e+03	0.00392434	700.0
2658	7.00420e+02	2.65800e+03	0.00393171	700.0
2659	7.00422e+02	2.65900e+03	0.00394258	700.0
2660	7.00420e+02	2.66000e+03	0.00397194	700.0
2661	7.00419e+02	2.66100e+03	0.00399546	700.0
2662	7.00414e+02	2.66200e+03	0.0040174	700.0
2663	7.00418e+02	2.66300e+03	0.00403876	700.0
2664	7.00406e+02	2.66400e+03	0.00406126	700.0
2665	7.00412e+02	2.66500e+03	0.0040762	700.0
2666	7.00410e+02	2.66600e+03	0.00408576	700.0
2667	7.00401e+02	2.66700e+03	0.00409203	700.0
2668	7.00405e+02	2.66800e+03	0.00407943	700.0
2669	7.00403e+02	2.66900e+03	0.00407174	700.0
2670	7.00399e+02	2.67000e+03	0.00406345	700.0
2671	7.00400e+02	2.67100e+03	0.0040542	700.0
2672	7.00393e+02	2.67200e+03	0.00403846	700.0
2673	7.00395e+02	2.67300e+03	0.00402879	700.0
2674	7.00404e+02	2.67400e+03	0.00402149	700.0
2675	7.00398e+02	2.67500e+03	0.00401529	700.0
2676	7.00393e+02	2.67600e+03	0.00401789	700.0
2677	7.00396e+02	2.67700e+03	0.00402005	700.0
2678	7.00396e+02	2.67800e+03	0.00402401	700.0
2679	7.00394e+02	2.67900e+03	0.00402866	700.0
2680	7.00388e+02	2.68000e+03	0.00403694	700.0
2681	7.00388e+02	2.68100e+03	0.00404174	700.0
2682	7.00389e+02	2.68200e+03	0.00404646	700.0
2683	7.00374e+02	2.68300e+03	0.00405141	700.0
2684	7.00383e+02	2.68400e+03	0.00405251	700.0
2685	7.00379e+02	2.68500e+03	0.00405473	700.0
2686	7.00378e+02	2.68600e+03	0.00405659	700.0
2687	7.00377e+02	2.68700e+03	0.00405796	700.0
2688	7.00383e+02	2.68800e+03	0.00405607	700.0
2689	7.00380e+02	2.68900e+03	0.0040531	700.0
2690	7.00380e+02	2.69000e+03	0.00404844	700.0
2691	7.00376e+02	2.69100e+03	0.00404259	700.0
2692	7.00372e+02	2.69200e+03	0.00403443	700.0
2693	7.00377e+02	2.69300e+03	0.00403189	700.0
2694	7.00376e+02	2.69400e+03	0.0040315	700.0
2695	7.00369e+02	2.69500e+03	0.00403131	700.0
2696	7.00370e+02	2.69600e+03	0.00403532	700.0
2697	7.00366e+02	2.69700e+03	0.00403642	700.0
2698	7.00366e+02	2.69800e+03	0.00403656	700.0
2699	7.00369e+02	2.69900e+03	0.00403631	700.0
2700	7.00359e+02	2.70000e+03	0.00403599	700.0
2701	7.00365e+02	2.70100e+03	0.00404041	700.0
2702	7.00371e+02	2.70200e+03	0.00404962	700.0
2703	7.00359e+02	2.70300e+03	0.00406083	700.0
2704	7.00361e+02	2.70400e+03	0.004079	700.0
2705	7.00357e+02	2.70500e+03	0.00409468	700.0
2706	7.00354e+02	2.70600e+03	0.00410938	700.0
2707	7.00354e+02	2.70700e+03	0.00412329	700.0
2708	7.00359e+02	2.70800e+03	0.00413669	700.0
2709	7.00354e+02	2.70900e+03	0.00414557	700.0
2710	7.00349e+02	2.71000e+03	0.00415119	700.0
2711	7.00355e+02	2.71100e+03	0.00415393	700.0
2712	7.00349e+02	2.71200e+03	0.00415323	700.0
2713	7.00356e+02	2.71300e+03	0.0041485	700.0
2714	7.00357e+02	2.71400e+03	0.00414153	700.0
2715	7.00349e+02	2.71500e+03	0.00413359	700.0
2716	7.00351e+02	2.71600e+03	0.00412569	700.0
2717	7.00357e+02	2.71700e+03	0.00411848	700.0
2718	7.00348e+02	2.71800e+03	0.00411228	700.0
2719	7.00346e+02	2.71900e+03	0.00410717	700.0
2720	7.00356e+02	2.72000e+03	0.00410281	700.0
