Index	Ts	t	Weight	Tr
[#]	[°C]	[s]	[mg]	[°C]
682	1.30382e+02	6.82000e+02	3.0115	131.0
683	1.30881e+02	6.83000e+02	3.01156	131.5
684	1.31376e+02	6.84000e+02	3.0117	132.0
685	1.31881e+02	6.85000e+02	3.01179	132.5
686	1.32383e+02	6.86000e+02	3.01187	133.0
687	1.32887e+02	6.87000e+02	3.01195	133.5
688	1.33381e+02	6.88000e+02	3.01198	134.0
689	1.33898e+02	6.89000e+02	3.01198	134.5
690	1.34393e+02	6.90000e+02	3.01195	135.0
691	1.34904e+02	6.91000e+02	3.0119	135.5
692	1.35398e+02	6.92000e+02	3.01173	136.0
693	1.35898e+02	6.93000e+02	3.0116	136.5
694	1.36401e+02	6.94000e+02	3.01149	137.0
695	1.36895e+02	6.95000e+02	3.01139	137.5
696	1.37388e+02	6.96000e+02	3.01128	138.0
697	1.37902e+02	6.97000e+02	3.01123	138.5
698	1.38413e+02	6.98000e+02	3.01119	139.0
699	1.38912e+02	6.99000e+02	3.01115	139.5
700	1.39402e+02	7.00000e+02	3.01117	140.0
701	1.39909e+02	7.01000e+02	3.01114	140.5
702	1.40408e+02	7.02000e+02	3.01108	141.0
703	1.40919e+02	7.03000e+02	3.01102	141.5
704	1.41419e+02	7.04000e+02	3.0109	142.0
705	1.41917e+02	7.05000e+02	3.01082	142.5
706	1.42428e+02	7.06000e+02	3.01076	143.0
707	1.42929e+02	7.07000e+02	3.01069	143.5
708	1.43439e+02	7.08000e+02	3.01066	144.0
709	1.43939e+02	7.09000e+02	3.01062	144.5
710	1.44442e+02	7.10000e+02	3.0106	145.0
711	1.44938e+02	7.11000e+02	3.01058	145.5
712	1.45451e+02	7.12000e+02	3.01059	146.0
713	1.45946e+02	7.13000e+02	3.01058	146.5
714	1.46447e+02	7.14000e+02	3.01057	147.0
715	1.46946e+02	7.15000e+02	3.01056	147.5
716	1.47452e+02	7.16000e+02	3.01054	148.0
717	1.47956e+02	7.17000e+02	3.01053	148.5
718	1.48460e+02	7.18000e+02	3.01051	149.0
719	1.48963e+02	7.19000e+02	3.01049	149.5
720	1.49467e+02	7.20000e+02	3.01046	150.0
721	1.49961e+02	7.21000e+02	3.01044	150.5
722	1.50468e+02	7.22000e+02	3.01042	151.0
723	1.50972e+02	7.23000e+02	3.0104	151.5
724	1.51489e+02	7.24000e+02	3.01041	152.0
725	1.51978e+02	7.25000e+02	3.01043	152.5
726	1.52483e+02	7.26000e+02	3.01046	153.0
727	1.52991e+02	7.27000e+02	3.01049	153.5
728	1.53484e+02	7.28000e+02	3.01053	154.0
729	1.53976e+02	7.29000e+02	3.01052	154.5
730	1.54495e+02	7.30000e+02	3.01047	155.0
731	1.54998e+02	7.31000e+02	3.0104	155.5
732	1.55505e+02	7.32000e+02	3.01023	156.0
733	1.56007e+02	7.33000e+02	3.01009	156.5
734	1.56502e+02	7.34000e+02	3.00995	157.0
735	1.57014e+02	7.35000e+02	3.00982	157.5
736	1.57521e+02	7.36000e+02	3.00966	158.0
737	1.58016e+02	7.37000e+02	3.00955	158.5
738	1.58525e+02	7.38000e+02	3.00946	159.0
739	1.59033e+02	7.39000e+02	3.00939	159.5
740	1.59552e+02	7.40000e+02	3.00943	160.0
741	1.60043e+02	7.41000e+02	3.00946	160.5
742	1.60556e+02	7.42000e+02	3.0095	161.0
743	1.61047e+02	7.43000e+02	3.00954	161.5
744	1.61551e+02	7.44000e+02	3.0096	162.0
745	1.62050e+02	7.45000e+02	3.00959	162.5
746	1.62568e+02	7.46000e+02	3.00953	163.0
747	1.63076e+02	7.47000e+02	3.00944	163.5
748	1.63581e+02	7.48000e+02	3.00923	164.0
749	1.64076e+02	7.49000e+02	3.00905	164.5
750	1.64589e+02	7.50000e+02	3.00889	165.0
751	1.65107e+02	7.51000e+02	3.00874	165.5
752	1.65596e+02	7.52000e+02	3.00859	166.0
753	1.66108e+02	7.53000e+02	3.00848	166.5
754	1.66613e+02	7.54000e+02	3.0084	167.0
755	1.67108e+02	7.55000e+02	3.00833	167.5
756	1.67615e+02	7.56000e+02	3.00836	168.0
757	1.68129e+02	7.57000e+02	3.00834	168.5
758	1.68633e+02	7.58000e+02	3.00832	169.0
759	1.69131e+02	7.59000e+02	3.00828	169.5
760	1.69651e+02	7.60000e+02	3.00824	170.0
761	1.70151e+02	7.61000e+02	3.00819	170.5
762	1.70652e+02	7.62000e+02	3.00814	171.0
763	1.71161e+02	7.63000e+02	3.00809	171.5
764	1.71666e+02	7.64000e+02	3.00801	172.0
765	1.72179e+02	7.65000e+02	3.00795	172.5
766	1.72677e+02	7.66000e+02	3.00789	173.0
767	1.73184e+02	7.67000e+02	3.00783	173.5
768	1.73698e+02	7.68000e+02	3.00778	174.0
769	1.74196e+02	7.69000e+02	3.00773	174.5
770	1.74708e+02	7.70000e+02	3.00768	175.0
771	1.75215e+02	7.71000e+02	3.00763	175.5
772	1.75725e+02	7.72000e+02	3.00758	176.0
773	1.76222e+02	7.73000e+02	3.00753	176.5
774	1.76717e+02	7.74000e+02	3.00747	177.0
775	1.77236e+02	7.75000e+02	3.00741	177.5
776	1.77738e+02	7.76000e+02	3.00733	178.0
777	1.78254e+02	7.77000e+02	3.00725	178.5
778	1.78765e+02	7.78000e+02	3.00716	179.0
779	1.79261e+02	7.79000e+02	3.00707	179.5
780	1.79767e+02	7.80000e+02	3.00696	180.0
781	1.80273e+02	7.81000e+02	3.00685	180.5
782	1.80784e+02	7.82000e+02	3.00674	181.0
783	1.81281e+02	7.83000e+02	3.00663	181.5
784	1.81794e+02	7.84000e+02	3.00651	182.0
785	1.82305e+02	7.85000e+02	3.00639	182.5
786	1.82812e+02	7.86000e+02	3.00627	183.0
787	1.83325e+02	7.87000e+02	3.00614	183.5
788	1.83827e+02	7.88000e+02	3.00601	184.0
789	1.84321e+02	7.89000e+02	3.00588	184.5
790	1.84842e+02	7.90000e+02	3.00576	185.0
791	1.85357e+02	7.91000e+02	3.00564	185.5
792	1.85859e+02	7.92000e+02	3.00552	186.0
793	1.86369e+02	7.93000e+02	3.0054	186.5
794	1.86867e+02	7.94000e+02	3.00527	187.0
795	1.87373e+02	7.95000e+02	3.00514	187.5
796	1.87882e+02	7.96000e+02	3.00498	188.0
797	1.88383e+02	7.97000e+02	3.00483	188.5
798	1.88888e+02	7.98000e+02	3.00467	189.0
799	1.89393e+02	7.99000e+02	3.00451	189.5
800	1.89912e+02	8.00000e+02	3.00432	190.0
801	1.90410e+02	8.01000e+02	3.00414	190.5
802	1.90919e+02	8.02000e+02	3.00396	191.0
803	1.91423e+02	8.03000e+02	3.00378	191.5
804	1.91933e+02	8.04000e+02	3.00359	192.0
805	1.92440e+02	8.05000e+02	3.00339	192.5
806	1.92949e+02	8.06000e+02	3.00318	193.0
807	1.93464e+02	8.07000e+02	3.00297	193.5
808	1.93957e+02	8.08000e+02	3.00273	194.0
809	1.94471e+02	8.09000e+02	3.0025	194.5
810	1.94987e+02	8.10000e+02	3.00225	195.0
811	1.95481e+02	8.11000e+02	3.002	195.5
812	1.95988e+02	8.12000e+02	3.00172	196.0
813	1.96495e+02	8.13000e+02	3.00144	196.5
814	1.97004e+02	8.14000e+02	3.00116	197.0
815	1.97523e+02	8.15000e+02	3.00087	197.5
816	1.98029e+02	8.16000e+02	3.00056	198.0
817	1.98540e+02	8.17000e+02	3.00026	198.5
818	1.99049e+02	8.18000e+02	2.99996	199.0
819	1.99562e+02	8.19000e+02	2.99966	199.5
820	2.00066e+02	8.20000e+02	2.99935	200.0
821	2.00570e+02	8.21000e+02	2.99905	200.5
822	2.01083e+02	8.22000e+02	2.99874	201.0
823	2.01591e+02	8.23000e+02	2.99843	201.5
824	2.02100e+02	8.24000e+02	2.99811	202.0
825	2.02620e+02	8.25000e+02	2.99778	202.5
826	2.03116e+02	8.26000e+02	2.99744	203.0
827	2.03629e+02	8.27000e+02	2.9971	203.5
828	2.04136e+02	8.28000e+02	2.99673	204.0
829	2.04643e+02	8.29000e+02	2.99638	204.5
830	2.05159e+02	8.30000e+02	2.99602	205.0
831	2.05660e+02	8.31000e+02	2.99566	205.5
832	2.06169e+02	8.32000e+02	2.99529	206.0
833	2.06672e+02	8.33000e+02	2.99492	206.5
834	2.07186e+02	8.34000e+02	2.99454	207.0
835	2.07698e+02	8.35000e+02	2.99417	207.5
836	2.08214e+02	8.36000e+02	2.99378	208.0
837	2.08715e+02	8.37000e+02	2.9934	208.5
838	2.09223e+02	8.38000e+02	2.99302	209.0
839	2.09733e+02	8.39000e+02	2.99264	209.5
840	2.10242e+02	8.40000e+02	2.99226	210.0
841	2.10758e+02	8.41000e+02	2.99188	210.5
842	2.11262e+02	8.42000e+02	2.9915	211.0
843	2.11772e+02	8.43000e+02	2.99112	211.5
844	2.12281e+02	8.44000e+02	2.99073	212.0
845	2.12800e+02	8.45000e+02	2.99035	212.5
846	2.13290e+02	8.46000e+02	2.98995	213.0
847	2.13804e+02	8.47000e+02	2.98956	213.5
848	2.14316e+02	8.48000e+02	2.98915	214.0
849	2.14826e+02	8.49000e+02	2.98874	214.5
850	2.15339e+02	8.50000e+02	2.98834	215.0
851	2.15845e+02	8.51000e+02	2.98793	215.5
852	2.16347e+02	8.52000e+02	2.98751	216.0
853	2.16869e+02	8.53000e+02	2.98709	216.5
854	2.17371e+02	8.54000e+02	2.98668	217.0
855	2.17878e+02	8.55000e+02	2.98627	217.5
856	2.18388e+02	8.56000e+02	2.98585	218.0
857	2.18890e+02	8.57000e+02	2.98544	218.5
858	2.19418e+02	8.58000e+02	2.98502	219.0
859	2.19931e+02	8.59000e+02	2.9846	219.5
860	2.20446e+02	8.60000e+02	2.98419	220.0
861	2.20952e+02	8.61000e+02	2.98377	220.5
862	2.21459e+02	8.62000e+02	2.98335	221.0
863	2.21976e+02	8.63000e+02	2.98294	221.5
864	2.22482e+02	8.64000e+02	2.98253	222.0
865	2.23003e+02	8.65000e+02	2.98212	222.5
866	2.23514e+02	8.66000e+02	2.98171	223.0
867	2.23995e+02	8.67000e+02	2.98131	223.5
868	2.24626e+02	8.68000e+02	2.98091	224.0
869	2.25120e+02	8.69000e+02	2.98051	224.5
870	2.25623e+02	8.70000e+02	2.9801	225.0
871	2.26134e+02	8.71000e+02	2.97969	225.5
872	2.26680e+02	8.72000e+02	2.97928	226.0
873	2.27199e+02	8.73000e+02	2.97886	226.5
874	2.27713e+02	8.74000e+02	2.97844	227.0
875	2.28223e+02	8.75000e+02	2.97802	227.5
876	2.28747e+02	8.76000e+02	2.9776	228.0
877	2.29293e+02	8.77000e+02	2.97718	228.5
878	2.29845e+02	8.78000e+02	2.97676	229.0
879	2.30347e+02	8.79000e+02	2.97634	229.5
880	2.30854e+02	8.80000e+02	2.97594	230.0
881	2.31407e+02	8.81000e+02	2.97553	230.5
882	2.31956e+02	8.82000e+02	2.97513	231.0
883	2.32470e+02	8.83000e+02	2.97472	231.5
884	2.32981e+02	8.84000e+02	2.97432	232.0
885	2.33493e+02	8.85000e+02	2.97392	232.5
886	2.34027e+02	8.86000e+02	2.97351	233.0
887	2.34517e+02	8.87000e+02	2.9731	233.5
888	2.35005e+02	8.88000e+02	2.97268	234.0
889	2.35514e+02	8.89000e+02	2.97226	234.5
890	2.36030e+02	8.90000e+02	2.97183	235.0
891	2.36538e+02	8.91000e+02	2.97141	235.5
892	2.37049e+02	8.92000e+02	2.97097	236.0
893	2.37540e+02	8.93000e+02	2.97053	236.5
894	2.38041e+02	8.94000e+02	2.97009	237.0
895	2.38538e+02	8.95000e+02	2.96964	237.5
896	2.39059e+02	8.96000e+02	2.96918	238.0
897	2.39555e+02	8.97000e+02	2.96871	238.5
898	2.40070e+02	8.98000e+02	2.96825	239.0
899	2.40574e+02	8.99000e+02	2.96778	239.5
900	2.41081e+02	9.00000e+02	2.96729	240.0
901	2.41602e+02	9.01000e+02	2.96682	240.5
902	2.42104e+02	9.02000e+02	2.96634	241.0
903	2.42622e+02	9.03000e+02	2.96587	241.5
904	2.43151e+02	9.04000e+02	2.9654	242.0
905	2.43662e+02	9.05000e+02	2.96494	242.5
906	2.44159e+02	9.06000e+02	2.96448	243.0
907	2.44698e+02	9.07000e+02	2.96402	243.5
908	2.45201e+02	9.08000e+02	2.96358	244.0
909	2.45726e+02	9.09000e+02	2.96312	244.5
910	2.46245e+02	9.10000e+02	2.96267	245.0
911	2.46762e+02	9.11000e+02	2.96222	245.5
912	2.47304e+02	9.12000e+02	2.96176	246.0
913	2.47814e+02	9.13000e+02	2.96129	246.5
914	2.48322e+02	9.14000e+02	2.96082	247.0
915	2.48834e+02	9.15000e+02	2.96036	247.5
916	2.49341e+02	9.16000e+02	2.95987	248.0
917	2.49851e+02	9.17000e+02	2.9594	248.5
918	2.50373e+02	9.18000e+02	2.95892	249.0
919	2.50887e+02	9.19000e+02	2.95843	249.5
920	2.51455e+02	9.20000e+02	2.95794	250.0
921	2.51961e+02	9.21000e+02	2.95745	250.5
922	2.52438e+02	9.22000e+02	2.95695	251.0
923	2.52945e+02	9.23000e+02	2.95645	251.5
924	2.53453e+02	9.24000e+02	2.95594	252.0
925	2.53969e+02	9.25000e+02	2.95545	252.5
926	2.54462e+02	9.26000e+02	2.95495	253.0
927	2.54961e+02	9.27000e+02	2.95446	253.5
928	2.55465e+02	9.28000e+02	2.95398	254.0
929	2.55978e+02	9.29000e+02	2.95348	254.5
930	2.56514e+02	9.30000e+02	2.95298	255.0
931	2.57024e+02	9.31000e+02	2.95248	255.5
932	2.57535e+02	9.32000e+02	2.95196	256.0
933	2.58059e+02	9.33000e+02	2.95144	256.5
934	2.58611e+02	9.34000e+02	2.95092	257.0
935	2.59119e+02	9.35000e+02	2.9504	257.5
936	2.59596e+02	9.36000e+02	2.94987	258.0
937	2.60129e+02	9.37000e+02	2.94935	258.5
938	2.60630e+02	9.38000e+02	2.94883	259.0
939	2.61129e+02	9.39000e+02	2.94832	259.5
940	2.61656e+02	9.40000e+02	2.94783	260.0
941	2.62120e+02	9.41000e+02	2.94734	260.5
942	2.62622e+02	9.42000e+02	2.94686	261.0
943	2.63128e+02	9.43000e+02	2.94637	261.5
944	2.63625e+02	9.44000e+02	2.9459	262.0
945	2.64114e+02	9.45000e+02	2.94543	262.5
946	2.64606e+02	9.46000e+02	2.94495	263.0
947	2.65227e+02	9.47000e+02	2.94447	263.5
948	2.65722e+02	9.48000e+02	2.94397	264.0
949	2.66195e+02	9.49000e+02	2.94348	264.5
950	2.66703e+02	9.50000e+02	2.94298	265.0
951	2.67217e+02	9.51000e+02	2.94247	265.5
952	2.67747e+02	9.52000e+02	2.94194	266.0
953	2.68268e+02	9.53000e+02	2.94141	266.5
954	2.68766e+02	9.54000e+02	2.94087	267.0
955	2.69274e+02	9.55000e+02	2.94033	267.5
956	2.69775e+02	9.56000e+02	2.93976	268.0
957	2.70286e+02	9.57000e+02	2.9392	268.5
958	2.70770e+02	9.58000e+02	2.93864	269.0
959	2.71276e+02	9.59000e+02	2.93808	269.5
960	2.71772e+02	9.60000e+02	2.93751	270.0
961	2.72273e+02	9.61000e+02	2.93694	270.5
962	2.72766e+02	9.62000e+02	2.93637	271.0
963	2.73248e+02	9.63000e+02	2.93581	271.5
964	2.73763e+02	9.64000e+02	2.93524	272.0
965	2.74252e+02	9.65000e+02	2.93468	272.5
966	2.74747e+02	9.66000e+02	2.93413	273.0
967	2.75239e+02	9.67000e+02	2.93358	273.5
968	2.75738e+02	9.68000e+02	2.93304	274.0
969	2.76224e+02	9.69000e+02	2.9325	274.5
970	2.76725e+02	9.70000e+02	2.93195	275.0
971	2.77216e+02	9.71000e+02	2.93141	275.5
972	2.77723e+02	9.72000e+02	2.93086	276.0
973	2.78232e+02	9.73000e+02	2.93031	276.5
974	2.78739e+02	9.74000e+02	2.92975	277.0
975	2.79233e+02	9.75000e+02	2.92918	277.5
976	2.79728e+02	9.76000e+02	2.92859	278.0
977	2.80229e+02	9.77000e+02	2.92801	278.5
978	2.80722e+02	9.78000e+02	2.92743	279.0
979	2.81208e+02	9.79000e+02	2.92684	279.5
980	2.81696e+02	9.80000e+02	2.92624	280.0
981	2.82189e+02	9.81000e+02	2.92564	280.5
982	2.82681e+02	9.82000e+02	2.92504	281.0
983	2.83180e+02	9.83000e+02	2.92444	281.5
984	2.83688e+02	9.84000e+02	2.92383	282.0
985	2.84163e+02	9.85000e+02	2.92322	282.5
986	2.84672e+02	9.86000e+02	2.9226	283.0
987	2.85177e+02	9.87000e+02	2.92197	283.5
988	2.85673e+02	9.88000e+02	2.92134	284.0
989	2.86174e+02	9.89000e+02	2.92071	284.5
990	2.86679e+02	9.90000e+02	2.92008	285.0
991	2.87183e+02	9.91000e+02	2.91945	285.5
992	2.87688e+02	9.92000e+02	2.91882	286.0
993	2.88196e+02	9.93000e+02	2.91819	286.5
994	2.88696e+02	9.94000e+02	2.91755	287.0
995	2.89202e+02	9.95000e+02	2.91691	287.5
996	2.89696e+02	9.96000e+02	2.91625	288.0
997	2.90201e+02	9.97000e+02	2.91558	288.5
998	2.90691e+02	9.98000e+02	2.91491	289.0
999	2.91206e+02	9.99000e+02	2.91423	289.5
1000	2.91681e+02	1.00000e+03	2.91352	290.0
1001	2.92147e+02	1.00100e+03	2.91282	290.5
1002	2.92636e+02	1.00200e+03	2.91211	291.0
1003	2.93092e+02	1.00300e+03	2.91139	291.5
1004	2.93587e+02	1.00400e+03	2.91064	292.0
1005	2.94058e+02	1.00500e+03	2.90989	292.5
1006	2.94567e+02	1.00600e+03	2.90913	293.0
1007	2.95044e+02	1.00700e+03	2.90837	293.5
1008	2.95520e+02	1.00800e+03	2.90756	294.0
1009	2.96006e+02	1.00900e+03	2.90675	294.5
1010	2.96473e+02	1.01000e+03	2.90593	295.0
1011	2.96963e+02	1.01100e+03	2.9051	295.5
1012	2.97454e+02	1.01200e+03	2.90422	296.0
1013	2.97931e+02	1.01300e+03	2.90334	296.5
1014	2.98423e+02	1.01400e+03	2.90245	297.0
1015	2.98914e+02	1.01500e+03	2.90155	297.5
1016	2.99407e+02	1.01600e+03	2.9006	298.0
1017	2.99898e+02	1.01700e+03	2.89964	298.5
1018	3.00380e+02	1.01800e+03	2.89868	299.0
1019	3.00875e+02	1.01900e+03	2.8977	299.5
1020	3.01361e+02	1.02000e+03	2.89666	300.0
1021	3.01854e+02	1.02100e+03	2.89562	300.5
1022	3.02351e+02	1.02200e+03	2.89458	301.0
1023	3.02828e+02	1.02300e+03	2.89352	301.5
1024	3.03313e+02	1.02400e+03	2.8924	302.0
1025	3.03795e+02	1.02500e+03	2.89129	302.5
1026	3.04287e+02	1.02600e+03	2.89017	303.0
1027	3.04776e+02	1.02700e+03	2.88905	303.5
1028	3.05250e+02	1.02800e+03	2.88787	304.0
1029	3.05741e+02	1.02900e+03	2.88671	304.5
1030	3.06231e+02	1.03000e+03	2.88554	305.0
1031	3.06722e+02	1.03100e+03	2.88437	305.5
1032	3.07207e+02	1.03200e+03	2.88315	306.0
1033	3.07705e+02	1.03300e+03	2.88193	306.5
1034	3.08192e+02	1.03400e+03	2.8807	307.0
1035	3.08676e+02	1.03500e+03	2.87945	307.5
1036	3.09166e+02	1.03600e+03	2.87815	308.0
1037	3.09647e+02	1.03700e+03	2.87685	308.5
1038	3.10131e+02	1.03800e+03	2.87555	309.0
1039	3.10625e+02	1.03900e+03	2.87423	309.5
1040	3.11118e+02	1.04000e+03	2.87284	310.0
1041	3.11605e+02	1.04100e+03	2.87147	310.5
1042	3.12097e+02	1.04200e+03	2.87008	311.0
1043	3.12592e+02	1.04300e+03	2.86868	311.5
1044	3.13084e+02	1.04400e+03	2.86723	312.0
1045	3.13592e+02	1.04500e+03	2.86578	312.5
1046	3.14082e+02	1.04600e+03	2.86432	313.0
1047	3.14579e+02	1.04700e+03	2.86285	313.5
1048	3.15090e+02	1.04800e+03	2.86132	314.0
1049	3.15598e+02	1.04900e+03	2.85979	314.5
1050	3.16097e+02	1.05000e+03	2.85825	315.0
1051	3.16605e+02	1.05100e+03	2.85669	315.5
1052	3.17110e+02	1.05200e+03	2.85505	316.0
1053	3.17607e+02	1.05300e+03	2.85342	316.5
1054	3.18108e+02	1.05400e+03	2.85176	317.0
1055	3.18598e+02	1.05500e+03	2.85008	317.5
1056	3.19108e+02	1.05600e+03	2.84831	318.0
1057	3.19615e+02	1.05700e+03	2.84656	318.5
1058	3.20106e+02	1.05800e+03	2.84479	319.0
1059	3.20606e+02	1.05900e+03	2.843	319.5
1060	3.21113e+02	1.06000e+03	2.84112	320.0
1061	3.21610e+02	1.06100e+03	2.83925	320.5
1062	3.22108e+02	1.06200e+03	2.83736	321.0
1063	3.22606e+02	1.06300e+03	2.83545	321.5
1064	3.23089e+02	1.06400e+03	2.83343	322.0
1065	3.23593e+02	1.06500e+03	2.83143	322.5
1066	3.24101e+02	1.06600e+03	2.82941	323.0
1067	3.24609e+02	1.06700e+03	2.82736	323.5
1068	3.25108e+02	1.06800e+03	2.82522	324.0
1069	3.25612e+02	1.06900e+03	2.8231	324.5
1070	3.26122e+02	1.07000e+03	2.82097	325.0
1071	3.26614e+02	1.07100e+03	2.81883	325.5
1072	3.27122e+02	1.07200e+03	2.81663	326.0
1073	3.27635e+02	1.07300e+03	2.81445	326.5
1074	3.28151e+02	1.07400e+03	2.81224	327.0
1075	3.28664e+02	1.07500e+03	2.81001	327.5
1076	3.29182e+02	1.07600e+03	2.80769	328.0
1077	3.29698e+02	1.07700e+03	2.80534	328.5
1078	3.30225e+02	1.07800e+03	2.80293	329.0
1079	3.30731e+02	1.07900e+03	2.8005	329.5
1080	3.31251e+02	1.08000e+03	2.79788	330.0
1081	3.31770e+02	1.08100e+03	2.7953	330.5
1082	3.32288e+02	1.08200e+03	2.79272	331.0
1083	3.32799e+02	1.08300e+03	2.79013	331.5
1084	3.33326e+02	1.08400e+03	2.78746	332.0
1085	3.33853e+02	1.08500e+03	2.78483	332.5
1086	3.34364e+02	1.08600e+03	2.78221	333.0
1087	3.34854e+02	1.08700e+03	2.77959	333.5
1088	3.35353e+02	1.08800e+03	2.77698	334.0
1089	3.35872e+02	1.08900e+03	2.77436	334.5
1090	3.36366e+02	1.09000e+03	2.77172	335.0
1091	3.36882e+02	1.09100e+03	2.76908	335.5
1092	3.37390e+02	1.09200e+03	2.76641	336.0
1093	3.37894e+02	1.09300e+03	2.76371	336.5
1094	3.38398e+02	1.09400e+03	2.76099	337.0
1095	3.38888e+02	1.09500e+03	2.75824	337.5
1096	3.39400e+02	1.09600e+03	2.75537	338.0
1097	3.39922e+02	1.09700e+03	2.75249	338.5
1098	3.40423e+02	1.09800e+03	2.74956	339.0
1099	3.40929e+02	1.09900e+03	2.74659	339.5
1100	3.41441e+02	1.10000e+03	2.7434	340.0
1101	3.41964e+02	1.10100e+03	2.74022	340.5
1102	3.42476e+02	1.10200e+03	2.73698	341.0
1103	3.42988e+02	1.10300e+03	2.73369	341.5
1104	3.43549e+02	1.10400e+03	2.73011	342.0
1105	3.44085e+02	1.10500e+03	2.72655	342.5
1106	3.44570e+02	1.10600e+03	2.72292	343.0
1107	3.45081e+02	1.10700e+03	2.71922	343.5
1108	3.45605e+02	1.10800e+03	2.71518	344.0
1109	3.46114e+02	1.10900e+03	2.71117	344.5
1110	3.46612e+02	1.11000e+03	2.70708	345.0
1111	3.47124e+02	1.11100e+03	2.70292	345.5
1112	3.47626e+02	1.11200e+03	2.69836	346.0
1113	3.48142e+02	1.11300e+03	2.69384	346.5
1114	3.48673e+02	1.11400e+03	2.68922	347.0
1115	3.49188e+02	1.11500e+03	2.68451	347.5
1116	3.49707e+02	1.11600e+03	2.67932	348.0
1117	3.50220e+02	1.11700e+03	2.67415	348.5
1118	3.50734e+02	1.11800e+03	2.66885	349.0
1119	3.51228e+02	1.11900e+03	2.66341	349.5
1120	3.51728e+02	1.12000e+03	2.65734	350.0
1121	3.52229e+02	1.12100e+03	2.65131	350.5
1122	3.52731e+02	1.12200e+03	2.64512	351.0
1123	3.53255e+02	1.12300e+03	2.63878	351.5
1124	3.53739e+02	1.12400e+03	2.63171	352.0
1125	3.54296e+02	1.12500e+03	2.62476	352.5
1126	3.54790e+02	1.12600e+03	2.61766	353.0
1127	3.55285e+02	1.12700e+03	2.61041	353.5
1128	3.55785e+02	1.12800e+03	2.60246	354.0
1129	3.56334e+02	1.12900e+03	2.59456	354.5
1130	3.56843e+02	1.13000e+03	2.58647	355.0
1131	3.57356e+02	1.13100e+03	2.5782	355.5
1132	3.57871e+02	1.13200e+03	2.56907	356.0
1133	3.58341e+02	1.13300e+03	2.56	356.5
1134	3.58845e+02	1.13400e+03	2.55068	357.0
1135	3.59357e+02	1.13500e+03	2.54117	357.5
1136	3.59844e+02	1.13600e+03	2.53061	358.0
1137	3.60333e+02	1.13700e+03	2.52016	358.5
1138	3.60827e+02	1.13800e+03	2.50946	359.0
1139	3.61329e+02	1.13900e+03	2.49853	359.5
1140	3.61825e+02	1.14000e+03	2.48645	360.0
1141	3.62320e+02	1.14100e+03	2.47448	360.5
1142	3.62806e+02	1.14200e+03	2.46224	361.0
1143	3.63295e+02	1.14300e+03	2.44974	361.5
1144	3.63775e+02	1.14400e+03	2.43594	362.0
1145	3.64286e+02	1.14500e+03	2.42228	362.5
1146	3.64775e+02	1.14600e+03	2.40834	363.0
1147	3.65278e+02	1.14700e+03	2.39415	363.5
1148	3.65769e+02	1.14800e+03	2.37864	364.0
1149	3.66239e+02	1.14900e+03	2.36334	364.5
1150	3.66728e+02	1.15000e+03	2.34776	365.0
1151	3.67226e+02	1.15100e+03	2.33192	365.5
1152	3.67707e+02	1.15200e+03	2.31478	366.0
1153	3.68185e+02	1.15300e+03	2.29779	366.5
1154	3.68686e+02	1.15400e+03	2.28051	367.0
1155	3.69176e+02	1.15500e+03	2.263	367.5
1156	3.69685e+02	1.15600e+03	2.24419	368.0
1157	3.70171e+02	1.15700e+03	2.22565	368.5
1158	3.70657e+02	1.15800e+03	2.20691	369.0
1159	3.71142e+02	1.15900e+03	2.18797	369.5
1160	3.71650e+02	1.16000e+03	2.16796	370.0
1161	3.72121e+02	1.16100e+03	2.14806	370.5
1162	3.72622e+02	1.16200e+03	2.12789	371.0
1163	3.73109e+02	1.16300e+03	2.1075	371.5
1164	3.73603e+02	1.16400e+03	2.08593	372.0
1165	3.74111e+02	1.16500e+03	2.0645	372.5
1166	3.74613e+02	1.16600e+03	2.04286	373.0
1167	3.75089e+02	1.16700e+03	2.02103	373.5
1168	3.75585e+02	1.16800e+03	1.9981	374.0
1169	3.76070e+02	1.16900e+03	1.97543	374.5
1170	3.76563e+02	1.17000e+03	1.95261	375.0
1171	3.77064e+02	1.17100e+03	1.92963	375.5
1172	3.77578e+02	1.17200e+03	1.90588	376.0
1173	3.78091e+02	1.17300e+03	1.88222	376.5
1174	3.78613e+02	1.17400e+03	1.85842	377.0
1175	3.79103e+02	1.17500e+03	1.83448	377.5
1176	3.79607e+02	1.17600e+03	1.80984	378.0
1177	3.80111e+02	1.17700e+03	1.78535	378.5
1178	3.80604e+02	1.17800e+03	1.76076	379.0
1179	3.81091e+02	1.17900e+03	1.73606	379.5
1180	3.81586e+02	1.18000e+03	1.71083	380.0
1181	3.82067e+02	1.18100e+03	1.68567	380.5
1182	3.82575e+02	1.18200e+03	1.66041	381.0
1183	3.83077e+02	1.18300e+03	1.63506	381.5
1184	3.83562e+02	1.18400e+03	1.60926	382.0
1185	3.84072e+02	1.18500e+03	1.58356	382.5
1186	3.84560e+02	1.18600e+03	1.5578	383.0
1187	3.85070e+02	1.18700e+03	1.532	383.5
1188	3.85557e+02	1.18800e+03	1.50589	384.0
1189	3.86044e+02	1.18900e+03	1.47988	384.5
1190	3.86548e+02	1.19000e+03	1.45382	385.0
1191	3.87052e+02	1.19100e+03	1.4277	385.5
1192	3.87547e+02	1.19200e+03	1.40139	386.0
1193	3.88030e+02	1.19300e+03	1.37511	386.5
1194	3.88533e+02	1.19400e+03	1.34878	387.0
1195	3.89040e+02	1.19500e+03	1.32243	387.5
1196	3.89545e+02	1.19600e+03	1.29589	388.0
1197	3.90046e+02	1.19700e+03	1.2694	388.5
1198	3.90544e+02	1.19800e+03	1.2429	389.0
1199	3.91040e+02	1.19900e+03	1.21637	389.5
1200	3.91542e+02	1.20000e+03	1.18975	390.0
1201	3.92038e+02	1.20100e+03	1.16317	390.5
1202	3.92566e+02	1.20200e+03	1.13659	391.0
1203	3.93063e+02	1.20300e+03	1.11001	391.5
1204	3.93572e+02	1.20400e+03	1.0834	392.0
1205	3.94082e+02	1.20500e+03	1.05679	392.5
1206	3.94583e+02	1.20600e+03	1.03012	393.0
1207	3.95088e+02	1.20700e+03	1.00342	393.5
1208	3.95581e+02	1.20800e+03	0.976532	394.0
1209	3.96086e+02	1.20900e+03	0.949558	394.5
1210	3.96566e+02	1.21000e+03	0.922459	395.0
1211	3.97077e+02	1.21100e+03	0.895273	395.5
1212	3.97581e+02	1.21200e+03	0.867635	396.0
1213	3.98077e+02	1.21300e+03	0.840112	396.5
1214	3.98593e+02	1.21400e+03	0.812578	397.0
1215	3.99106e+02	1.21500e+03	0.785032	397.5
1216	3.99614e+02	1.21600e+03	0.757367	398.0
1217	4.00123e+02	1.21700e+03	0.729933	398.5
1218	4.00618e+02	1.21800e+03	0.702697	399.0
1219	4.01131e+02	1.21900e+03	0.6756	399.5
1220	4.01652e+02	1.22000e+03	0.649182	400.0
1221	4.02165e+02	1.22100e+03	0.622874	400.5
1222	4.02669e+02	1.22200e+03	0.596894	401.0
1223	4.03174e+02	1.22300e+03	0.571173	401.5
1224	4.03692e+02	1.22400e+03	0.546797	402.0
1225	4.04214e+02	1.22500e+03	0.522345	402.5
1226	4.04735e+02	1.22600e+03	0.498282	403.0
1227	4.05255e+02	1.22700e+03	0.474565	403.5
1228	4.05762e+02	1.22800e+03	0.452589	404.0
1229	4.06283e+02	1.22900e+03	0.430482	404.5
1230	4.06804e+02	1.23000e+03	0.40883	405.0
1231	4.07329e+02	1.23100e+03	0.387579	405.5
1232	4.07835e+02	1.23200e+03	0.368376	406.0
1233	4.08346e+02	1.23300e+03	0.348931	406.5
1234	4.08856e+02	1.23400e+03	0.329938	407.0
1235	4.09360e+02	1.23500e+03	0.311355	407.5
1236	4.09872e+02	1.23600e+03	0.294906	408.0
1237	4.10374e+02	1.23700e+03	0.278159	408.5
1238	4.10889e+02	1.23800e+03	0.261837	409.0
1239	4.11404e+02	1.23900e+03	0.245908	409.5
1240	4.11917e+02	1.24000e+03	0.232008	410.0
1241	4.12423e+02	1.24100e+03	0.217773	410.5
1242	4.12925e+02	1.24200e+03	0.203898	411.0
1243	4.13438e+02	1.24300e+03	0.190367	411.5
1244	4.13952e+02	1.24400e+03	0.178633	412.0
1245	4.14450e+02	1.24500e+03	0.166615	412.5
1246	4.14960e+02	1.24600e+03	0.154936	413.0
1247	4.15470e+02	1.24700e+03	0.143579	413.5
1248	4.15985e+02	1.24800e+03	0.133836	414.0
1249	4.16494e+02	1.24900e+03	0.12383	414.5
1250	4.17019e+02	1.25000e+03	0.114109	415.0
1251	4.17512e+02	1.25100e+03	0.104661	415.5
1252	4.18013e+02	1.25200e+03	0.0966404	416.0
1253	4.18519e+02	1.25300e+03	0.0883743	416.5
1254	4.19045e+02	1.25400e+03	0.0803705	417.0
1255	4.19557e+02	1.25500e+03	0.0726211	417.5
1256	4.20092e+02	1.25600e+03	0.0661391	418.0
1257	4.20558e+02	1.25700e+03	0.0594544	418.5
1258	4.21073e+02	1.25800e+03	0.0529658	419.0
1259	4.21579e+02	1.25900e+03	0.0466591	419.5
1260	4.22084e+02	1.26000e+03	0.041381	420.0
1261	4.22588e+02	1.26100e+03	0.0358574	420.5
1262	4.23112e+02	1.26200e+03	0.0304939	421.0
1263	4.23628e+02	1.26300e+03	0.0253071	421.5
1264	4.24131e+02	1.26400e+03	0.0209474	422.0
1265	4.24650e+02	1.26500e+03	0.0165597	422.5
1266	4.25150e+02	1.26600e+03	0.0123916	423.0
1267	4.25668e+02	1.26700e+03	0.00840538	423.5
1268	4.26175e+02	1.26800e+03	0.00536643	424.0
1269	4.26682e+02	1.26900e+03	0.00210315	424.5
1270	4.27181e+02	1.27000e+03	-0.00106146	425.0
1271	4.27683e+02	1.27100e+03	-0.00411777	425.5
1272	4.28200e+02	1.27200e+03	-0.00657653	426.0
1273	4.28690e+02	1.27300e+03	-0.0091963	426.5
1274	4.29202e+02	1.27400e+03	-0.0117475	427.0
1275	4.29712e+02	1.27500e+03	-0.0142164	427.5
1276	4.30206e+02	1.27600e+03	-0.0162939	428.0
1277	4.30695e+02	1.27700e+03	-0.0184039	428.5
1278	4.31206e+02	1.27800e+03	-0.0204189	429.0
1279	4.31708e+02	1.27900e+03	-0.0223512	429.5
1280	4.32200e+02	1.28000e+03	-0.0238617	430.0
1281	4.32715e+02	1.28100e+03	-0.0254487	430.5
1282	4.33227e+02	1.28200e+03	-0.0269684	431.0
1283	4.33723e+02	1.28300e+03	-0.0284223	431.5
1284	4.34215e+02	1.28400e+03	-0.0295343	432.0
1285	4.34731e+02	1.28500e+03	-0.0307204	432.5
1286	4.35221e+02	1.28600e+03	-0.0318634	433.0
1287	4.35720e+02	1.28700e+03	-0.0329617	433.5
1288	4.36220e+02	1.28800e+03	-0.0338294	434.0
1289	4.36729e+02	1.28900e+03	-0.0347571	434.5
1290	4.37213e+02	1.29000e+03	-0.0356603	435.0
1291	4.37704e+02	1.29100e+03	-0.0365341	435.5
1292	4.38210e+02	1.29200e+03	-0.0372582	436.0
1293	4.38715e+02	1.29300e+03	-0.0380049	436.5
1294	4.39217e+02	1.29400e+03	-0.0387213	437.0
1295	4.39716e+02	1.29500e+03	-0.0394097	437.5
1296	4.40201e+02	1.29600e+03	-0.0399654	438.0
1297	4.40695e+02	1.29700e+03	-0.04055	438.5
1298	4.41189e+02	1.29800e+03	-0.0411252	439.0
1299	4.41700e+02	1.29900e+03	-0.0416907	439.5
1300	4.42181e+02	1.30000e+03	-0.042185	440.0
1301	4.42685e+02	1.30100e+03	-0.0427137	440.5
1302	4.43175e+02	1.30200e+03	-0.0432403	441.0
1303	4.43675e+02	1.30300e+03	-0.0437578	441.5
1304	4.44176e+02	1.30400e+03	-0.0442359	442.0
1305	4.44670e+02	1.30500e+03	-0.0446839	442.5
1306	4.45170e+02	1.30600e+03	-0.045096	443.0
1307	4.45664e+02	1.30700e+03	-0.0454838	443.5
1308	4.46159e+02	1.30800e+03	-0.0457567	444.0
1309	4.46666e+02	1.30900e+03	-0.0460626	444.5
1310	4.47157e+02	1.31000e+03	-0.0463666	445.0
1311	4.47657e+02	1.31100e+03	-0.0466659	445.5
1312	4.48154e+02	1.31200e+03	-0.0469157	446.0
1313	4.48641e+02	1.31300e+03	-0.0471936	446.5
1314	4.49124e+02	1.31400e+03	-0.0474731	447.0
1315	4.49616e+02	1.31500e+03	-0.0477484	447.5
1316	4.50107e+02	1.31600e+03	-0.0480189	448.0
1317	4.50600e+02	1.31700e+03	-0.0482714	448.5
1318	4.51092e+02	1.31800e+03	-0.0485062	449.0
1319	4.51585e+02	1.31900e+03	-0.0487275	449.5
1320	4.52075e+02	1.32000e+03	-0.0488811	450.0
1321	4.52562e+02	1.32100e+03	-0.049036	450.5
1322	4.53043e+02	1.32200e+03	-0.0491757	451.0
1323	4.53538e+02	1.32300e+03	-0.0493042	451.5
1324	4.54036e+02	1.32400e+03	-0.0493679	452.0
1325	4.54509e+02	1.32500e+03	-0.0494631	452.5
1326	4.54990e+02	1.32600e+03	-0.0495672	453.0
1327	4.55484e+02	1.32700e+03	-0.0496756	453.5
1328	4.55969e+02	1.32800e+03	-0.0497918	454.0
1329	4.56456e+02	1.32900e+03	-0.0499141	454.5
1330	4.56944e+02	1.33000e+03	-0.0500399	455.0
1331	4.57426e+02	1.33100e+03	-0.0501662	455.5
1332	4.57913e+02	1.33200e+03	-0.0503063	456.0
1333	4.58402e+02	1.33300e+03	-0.0504293	456.5
1334	4.58883e+02	1.33400e+03	-0.050544	457.0
1335	4.59379e+02	1.33500e+03	-0.0506538	457.5
1336	4.59879e+02	1.33600e+03	-0.0507355	458.0
1337	4.60358e+02	1.33700e+03	-0.0508208	458.5
1338	4.60842e+02	1.33800e+03	-0.0508985	459.0
1339	4.61331e+02	1.33900e+03	-0.0509697	459.5
1340	4.61821e+02	1.34000e+03	-0.0510183	460.0
1341	4.62301e+02	1.34100e+03	-0.0510736	460.5
1342	4.62791e+02	1.34200e+03	-0.0511265	461.0
1343	4.63287e+02	1.34300e+03	-0.0511763	461.5
1344	4.63778e+02	1.34400e+03	-0.0512092	462.0
1345	4.64261e+02	1.34500e+03	-0.0512441	462.5
1346	4.64751e+02	1.34600e+03	-0.0512755	463.0
1347	4.65241e+02	1.34700e+03	-0.0513038	463.5
1348	4.65734e+02	1.34800e+03	-0.0513133	464.0
1349	4.66223e+02	1.34900e+03	-0.0513253	464.5
1350	4.66714e+02	1.35000e+03	-0.0513356	465.0
1351	4.67201e+02	1.35100e+03	-0.0513448	465.5
1352	4.67688e+02	1.35200e+03	-0.0513511	466.0
1353	4.68187e+02	1.35300e+03	-0.0513705	466.5
1354	4.68679e+02	1.35400e+03	-0.0513993	467.0
1355	4.69171e+02	1.35500e+03	-0.051434	467.5
1356	4.69672e+02	1.35600e+03	-0.0514994	468.0
1357	4.70166e+02	1.35700e+03	-0.0515593	468.5
1358	4.70651e+02	1.35800e+03	-0.0516211	469.0
1359	4.71141e+02	1.35900e+03	-0.0516847	469.5
1360	4.71630e+02	1.36000e+03	-0.0517595	470.0
1361	4.72126e+02	1.36100e+03	-0.051817	470.5
1362	4.72612e+02	1.36200e+03	-0.0518639	471.0
1363	4.73112e+02	1.36300e+03	-0.0519047	471.5
1364	4.73595e+02	1.36400e+03	-0.0519103	472.0
1365	4.74083e+02	1.36500e+03	-0.0519196	472.5
1366	4.74570e+02	1.36600e+03	-0.0519254	473.0
1367	4.75066e+02	1.36700e+03	-0.0519288	473.5
1368	4.75555e+02	1.36800e+03	-0.0519126	474.0
1369	4.76045e+02	1.36900e+03	-0.0519131	474.5
1370	4.76540e+02	1.37000e+03	-0.0519196	475.0
1371	4.77037e+02	1.37100e+03	-0.0519284	475.5
1372	4.77526e+02	1.37200e+03	-0.0519573	476.0
1373	4.78030e+02	1.37300e+03	-0.0519839	476.5
1374	4.78529e+02	1.37400e+03	-0.052015	477.0
1375	4.79022e+02	1.37500e+03	-0.0520499	477.5
1376	4.79525e+02	1.37600e+03	-0.0521014	478.0
1377	4.80034e+02	1.37700e+03	-0.0521455	478.5
1378	4.80536e+02	1.37800e+03	-0.0521869	479.0
1379	4.81013e+02	1.37900e+03	-0.0522268	479.5
1380	4.81509e+02	1.38000e+03	-0.0522615	480.0
1381	4.82004e+02	1.38100e+03	-0.0522903	480.5
1382	4.82494e+02	1.38200e+03	-0.0523154	481.0
1383	4.82976e+02	1.38300e+03	-0.0523387	481.5
1384	4.83475e+02	1.38400e+03	-0.0523479	482.0
1385	4.83958e+02	1.38500e+03	-0.0523663	482.5
1386	4.84442e+02	1.38600e+03	-0.0523868	483.0
1387	4.84928e+02	1.38700e+03	-0.0524074	483.5
1388	4.85418e+02	1.38800e+03	-0.0524359	484.0
1389	4.85897e+02	1.38900e+03	-0.0524659	484.5
1390	4.86401e+02	1.39000e+03	-0.0525004	485.0
1391	4.86884e+02	1.39100e+03	-0.0525384	485.5
1392	4.87374e+02	1.39200e+03	-0.0525903	486.0
1393	4.87871e+02	1.39300e+03	-0.0526398	486.5
1394	4.88368e+02	1.39400e+03	-0.0526901	487.0
1395	4.88858e+02	1.39500e+03	-0.0527412	487.5
1396	4.89359e+02	1.39600e+03	-0.0527974	488.0
1397	4.89827e+02	1.39700e+03	-0.0528464	488.5
1398	4.90304e+02	1.39800e+03	-0.0528939	489.0
1399	4.90785e+02	1.39900e+03	-0.052941	489.5
1400	4.91262e+02	1.40000e+03	-0.0529802	490.0
1401	4.91749e+02	1.40100e+03	-0.053023	490.5
1402	4.92224e+02	1.40200e+03	-0.0530642	491.0
1403	4.92709e+02	1.40300e+03	-0.0531033	491.5
1404	4.93185e+02	1.40400e+03	-0.0531344	492.0
1405	4.93681e+02	1.40500e+03	-0.0531611	492.5
1406	4.94169e+02	1.40600e+03	-0.0531836	493.0
1407	4.94653e+02	1.40700e+03	-0.0532034	493.5
1408	4.95138e+02	1.40800e+03	-0.0532065	494.0
1409	4.95625e+02	1.40900e+03	-0.053219	494.5
1410	4.96122e+02	1.41000e+03	-0.0532345	495.0
1411	4.96606e+02	1.41100e+03	-0.0532509	495.5
1412	4.97084e+02	1.41200e+03	-0.0532668	496.0
1413	4.97563e+02	1.41300e+03	-0.0532831	496.5
1414	4.98056e+02	1.41400e+03	-0.0533003	497.0
1415	4.98538e+02	1.41500e+03	-0.0533184	497.5
1416	4.99039e+02	1.41600e+03	-0.0533402	498.0
1417	4.99510e+02	1.41700e+03	-0.0533618	498.5
1418	4.99997e+02	1.41800e+03	-0.0533841	499.0
1419	5.00496e+02	1.41900e+03	-0.0534071	499.5
1420	5.00987e+02	1.42000e+03	-0.0534332	500.0
1421	5.01479e+02	1.42100e+03	-0.0534561	500.5
1422	5.01970e+02	1.42200e+03	-0.0534775	501.0
1423	5.02464e+02	1.42300e+03	-0.0534981	501.5
1424	5.02945e+02	1.42400e+03	-0.0535161	502.0
1425	5.03450e+02	1.42500e+03	-0.0535353	502.5
1426	5.03948e+02	1.42600e+03	-0.0535557	503.0
1427	5.04425e+02	1.42700e+03	-0.0535763	503.5
1428	5.04911e+02	1.42800e+03	-0.053596	504.0
1429	5.05405e+02	1.42900e+03	-0.0536169	504.5
1430	5.05891e+02	1.43000e+03	-0.0536392	505.0
1431	5.06382e+02	1.43100e+03	-0.0536624	505.5
1432	5.06877e+02	1.43200e+03	-0.0536887	506.0
1433	5.07358e+02	1.43300e+03	-0.0537158	506.5
1434	5.07856e+02	1.43400e+03	-0.0537468	507.0
1435	5.08335e+02	1.43500e+03	-0.053782	507.5
1436	5.08816e+02	1.43600e+03	-0.0538372	508.0
1437	5.09310e+02	1.43700e+03	-0.0538947	508.5
1438	5.09803e+02	1.43800e+03	-0.0539536	509.0
1439	5.10301e+02	1.43900e+03	-0.0540115	509.5
1440	5.10796e+02	1.44000e+03	-0.0540702	510.0
1441	5.11285e+02	1.44100e+03	-0.0541036	510.5
1442	5.11784e+02	1.44200e+03	-0.0541206	511.0
1443	5.12282e+02	1.44300e+03	-0.0541287	511.5
1444	5.12768e+02	1.44400e+03	-0.0540905	512.0
1445	5.13265e+02	1.44500e+03	-0.0540759	512.5
1446	5.13760e+02	1.44600e+03	-0.054068	513.0
1447	5.14235e+02	1.44700e+03	-0.0540629	513.5
1448	5.14722e+02	1.44800e+03	-0.0540679	514.0
1449	5.15217e+02	1.44900e+03	-0.0540821	514.5
1450	5.15698e+02	1.45000e+03	-0.0541043	515.0
1451	5.16197e+02	1.45100e+03	-0.0541313	515.5
1452	5.16680e+02	1.45200e+03	-0.0541884	516.0
1453	5.17182e+02	1.45300e+03	-0.0542315	516.5
1454	5.17679e+02	1.45400e+03	-0.0542727	517.0
1455	5.18165e+02	1.45500e+03	-0.0543144	517.5
1456	5.18654e+02	1.45600e+03	-0.0543546	518.0
1457	5.19150e+02	1.45700e+03	-0.0543901	518.5
1458	5.19631e+02	1.45800e+03	-0.0544214	519.0
1459	5.20122e+02	1.45900e+03	-0.0544499	519.5
1460	5.20614e+02	1.46000e+03	-0.0544644	520.0
1461	5.21102e+02	1.46100e+03	-0.0544796	520.5
1462	5.21596e+02	1.46200e+03	-0.0544873	521.0
1463	5.22081e+02	1.46300e+03	-0.054487	521.5
1464	5.22576e+02	1.46400e+03	-0.0544467	522.0
1465	5.23058e+02	1.46500e+03	-0.0543966	522.5
1466	5.23543e+02	1.46600e+03	-0.0543341	523.0
1467	5.24026e+02	1.46700e+03	-0.0542655	523.5
1468	5.24522e+02	1.46800e+03	-0.0541606	524.0
1469	5.25017e+02	1.46900e+03	-0.0540978	524.5
1470	5.25506e+02	1.47000e+03	-0.0540605	525.0
1471	5.25999e+02	1.47100e+03	-0.0540373	525.5
1472	5.26508e+02	1.47200e+03	-0.0540732	526.0
1473	5.26987e+02	1.47300e+03	-0.0541035	526.5
1474	5.27478e+02	1.47400e+03	-0.0541436	527.0
1475	5.27975e+02	1.47500e+03	-0.0541908	527.5
1476	5.28475e+02	1.47600e+03	-0.0542958	528.0
1477	5.28950e+02	1.47700e+03	-0.0543857	528.5
1478	5.29446e+02	1.47800e+03	-0.0544891	529.0
1479	5.29941e+02	1.47900e+03	-0.0546078	529.5
1480	5.30423e+02	1.48000e+03	-0.0547713	530.0
1481	5.30920e+02	1.48100e+03	-0.0549286	530.5
1482	5.31405e+02	1.48200e+03	-0.0550845	531.0
1483	5.31899e+02	1.48300e+03	-0.0552371	531.5
1484	5.32387e+02	1.48400e+03	-0.0553915	532.0
1485	5.32866e+02	1.48500e+03	-0.0555025	532.5
1486	5.33368e+02	1.48600e+03	-0.0555829	533.0
1487	5.33872e+02	1.48700e+03	-0.0556445	533.5
1488	5.34371e+02	1.48800e+03	-0.0556046	534.0
1489	5.34860e+02	1.48900e+03	-0.0555941	534.5
1490	5.35360e+02	1.49000e+03	-0.0555808	535.0
1491	5.35856e+02	1.49100e+03	-0.0555623	535.5
1492	5.36344e+02	1.49200e+03	-0.0555032	536.0
1493	5.36841e+02	1.49300e+03	-0.0554687	536.5
1494	5.37342e+02	1.49400e+03	-0.0554408	537.0
1495	5.37834e+02	1.49500e+03	-0.0554145	537.5
1496	5.38331e+02	1.49600e+03	-0.0554021	538.0
1497	5.38837e+02	1.49700e+03	-0.0553883	538.5
1498	5.39337e+02	1.49800e+03	-0.0553795	539.0
1499	5.39825e+02	1.49900e+03	-0.0553752	539.5
1500	5.40337e+02	1.50000e+03	-0.0553893	540.0
1501	5.40833e+02	1.50100e+03	-0.0554009	540.5
1502	5.41335e+02	1.50200e+03	-0.055413	541.0
1503	5.41825e+02	1.50300e+03	-0.0554248	541.5
1504	5.42331e+02	1.50400e+03	-0.0554452	542.0
1505	5.42840e+02	1.50500e+03	-0.0554548	542.5
1506	5.43336e+02	1.50600e+03	-0.0554596	543.0
1507	5.43825e+02	1.50700e+03	-0.0554624	543.5
1508	5.44330e+02	1.50800e+03	-0.0554534	544.0
1509	5.44822e+02	1.50900e+03	-0.0554536	544.5
1510	5.45328e+02	1.51000e+03	-0.0554592	545.0
1511	5.45824e+02	1.51100e+03	-0.0554678	545.5
1512	5.46319e+02	1.51200e+03	-0.0554871	546.0
1513	5.46810e+02	1.51300e+03	-0.0555071	546.5
1514	5.47323e+02	1.51400e+03	-0.0555301	547.0
1515	5.47823e+02	1.51500e+03	-0.055556	547.5
1516	5.48326e+02	1.51600e+03	-0.0556018	548.0
1517	5.48828e+02	1.51700e+03	-0.0556466	548.5
1518	5.49314e+02	1.51800e+03	-0.0556935	549.0
1519	5.49821e+02	1.51900e+03	-0.0557394	549.5
1520	5.50338e+02	1.52000e+03	-0.0557825	550.0
1521	5.50826e+02	1.52100e+03	-0.0558088	550.5
1522	5.51328e+02	1.52200e+03	-0.0558226	551.0
1523	5.51821e+02	1.52300e+03	-0.0558293	551.5
1524	5.52354e+02	1.52400e+03	-0.0558024	552.0
1525	5.52878e+02	1.52500e+03	-0.0557929	552.5
1526	5.53392e+02	1.52600e+03	-0.0557903	553.0
1527	5.53896e+02	1.52700e+03	-0.0557911	553.5
1528	5.54396e+02	1.52800e+03	-0.0558026	554.0
1529	5.54878e+02	1.52900e+03	-0.0558237	554.5
1530	5.55362e+02	1.53000e+03	-0.05585	555.0
1531	5.55858e+02	1.53100e+03	-0.0558785	555.5
1532	5.56359e+02	1.53200e+03	-0.055934	556.0
1533	5.56854e+02	1.53300e+03	-0.0559744	556.5
1534	5.57359e+02	1.53400e+03	-0.0560107	557.0
1535	5.57860e+02	1.53500e+03	-0.0560452	557.5
1536	5.58331e+02	1.53600e+03	-0.056071	558.0
1537	5.58825e+02	1.53700e+03	-0.0560984	558.5
1538	5.59320e+02	1.53800e+03	-0.0561254	559.0
1539	5.59795e+02	1.53900e+03	-0.0561521	559.5
1540	5.60285e+02	1.54000e+03	-0.0561731	560.0
1541	5.60771e+02	1.54100e+03	-0.0561973	560.5
1542	5.61273e+02	1.54200e+03	-0.0562222	561.0
1543	5.61783e+02	1.54300e+03	-0.0562471	561.5
1544	5.62287e+02	1.54400e+03	-0.0562723	562.0
1545	5.62774e+02	1.54500e+03	-0.0562948	562.5
1546	5.63272e+02	1.54600e+03	-0.056314	563.0
1547	5.63799e+02	1.54700e+03	-0.0563304	563.5
1548	5.64313e+02	1.54800e+03	-0.0563366	564.0
1549	5.64801e+02	1.54900e+03	-0.056343	564.5
1550	5.65289e+02	1.55000e+03	-0.0563483	565.0
1551	5.65766e+02	1.55100e+03	-0.0563526	565.5
1552	5.66227e+02	1.55200e+03	-0.0563468	566.0
1553	5.66681e+02	1.55300e+03	-0.0563478	566.5
1554	5.67174e+02	1.55400e+03	-0.0563515	567.0
1555	5.67665e+02	1.55500e+03	-0.0563568	567.5
1556	5.68151e+02	1.55600e+03	-0.0563664	568.0
1557	5.68640e+02	1.55700e+03	-0.0563739	568.5
1558	5.69149e+02	1.55800e+03	-0.0563807	569.0
1559	5.69632e+02	1.55900e+03	-0.0563871	569.5
1560	5.70130e+02	1.56000e+03	-0.0563909	570.0
1561	5.70653e+02	1.56100e+03	-0.0563908	570.5
1562	5.71151e+02	1.56200e+03	-0.0563887	571.0
1563	5.71633e+02	1.56300e+03	-0.0563857	571.5
1564	5.72149e+02	1.56400e+03	-0.0563757	572.0
1565	5.72652e+02	1.56500e+03	-0.0563717	572.5
1566	5.73171e+02	1.56600e+03	-0.0563712	573.0
1567	5.73674e+02	1.56700e+03	-0.0563727	573.5
1568	5.74173e+02	1.56800e+03	-0.0563833	574.0
1569	5.74697e+02	1.56900e+03	-0.0563935	574.5
1570	5.75209e+02	1.57000e+03	-0.0564048	575.0
1571	5.75754e+02	1.57100e+03	-0.0564167	575.5
1572	5.76303e+02	1.57200e+03	-0.0564369	576.0
1573	5.76909e+02	1.57300e+03	-0.0564534	576.5
1574	5.77423e+02	1.57400e+03	-0.0564701	577.0
1575	5.77966e+02	1.57500e+03	-0.0564872	577.5
1576	5.78437e+02	1.57600e+03	-0.0565044	578.0
1577	5.79052e+02	1.57700e+03	-0.0565209	578.5
1578	5.79530e+02	1.57800e+03	-0.0565355	579.0
1579	5.80059e+02	1.57900e+03	-0.0565483	579.5
1580	5.80607e+02	1.58000e+03	-0.056554	580.0
1581	5.81077e+02	1.58100e+03	-0.0565569	580.5
1582	5.81612e+02	1.58200e+03	-0.0565567	581.0
1583	5.83358e+02	1.58300e+03	-0.056554	581.5
1584	5.83728e+02	1.58400e+03	-0.0565365	582.0
1585	5.84163e+02	1.58500e+03	-0.0565251	582.5
1586	5.84615e+02	1.58600e+03	-0.0565139	583.0
1587	5.85080e+02	1.58700e+03	-0.0565016	583.5
1588	5.85559e+02	1.58800e+03	-0.0564875	584.0
1589	5.86036e+02	1.58900e+03	-0.0564759	584.5
1590	5.86538e+02	1.59000e+03	-0.0564656	585.0
1591	5.87021e+02	1.59100e+03	-0.0564562	585.5
1592	5.87507e+02	1.59200e+03	-0.0564516	586.0
1593	5.88009e+02	1.59300e+03	-0.0564472	586.5
1594	5.88505e+02	1.59400e+03	-0.0564443	587.0
1595	5.88994e+02	1.59500e+03	-0.0564425	587.5
1596	5.89485e+02	1.59600e+03	-0.0564473	588.0
1597	5.89980e+02	1.59700e+03	-0.0564526	588.5
1598	5.90475e+02	1.59800e+03	-0.0564625	589.0
1599	5.90970e+02	1.59900e+03	-0.0564767	589.5
1600	5.91461e+02	1.60000e+03	-0.0565063	590.0
1601	5.91966e+02	1.60100e+03	-0.0565365	590.5
1602	5.92459e+02	1.60200e+03	-0.0565702	591.0
1603	5.92958e+02	1.60300e+03	-0.0566062	591.5
1604	5.93450e+02	1.60400e+03	-0.0566566	592.0
1605	5.93942e+02	1.60500e+03	-0.0566934	592.5
1606	5.94434e+02	1.60600e+03	-0.0567225	593.0
1607	5.94927e+02	1.60700e+03	-0.0567477	593.5
1608	5.95419e+02	1.60800e+03	-0.0567515	594.0
1609	5.95916e+02	1.60900e+03	-0.0567538	594.5
1610	5.96411e+02	1.61000e+03	-0.056751	595.0
1611	5.96910e+02	1.61100e+03	-0.0567445	595.5
1612	5.97398e+02	1.61200e+03	-0.0567129	596.0
1613	5.97891e+02	1.61300e+03	-0.0566927	596.5
1614	5.98387e+02	1.61400e+03	-0.0566749	597.0
1615	5.98873e+02	1.61500e+03	-0.0566577	597.5
1616	5.99366e+02	1.61600e+03	-0.0566404	598.0
1617	5.99861e+02	1.61700e+03	-0.0566261	598.5
1618	6.00347e+02	1.61800e+03	-0.0566158	599.0
1619	6.00829e+02	1.61900e+03	-0.0566084	599.5
1620	6.01308e+02	1.62000e+03	-0.0566137	600.0
1621	6.01800e+02	1.62100e+03	-0.056619	600.5
1622	6.02280e+02	1.62200e+03	-0.0566275	601.0
1623	6.02765e+02	1.62300e+03	-0.0566385	601.5
1624	6.03264e+02	1.62400e+03	-0.056663	602.0
1625	6.03748e+02	1.62500e+03	-0.0566799	602.5
1626	6.04234e+02	1.62600e+03	-0.0566931	603.0
1627	6.04730e+02	1.62700e+03	-0.0567045	603.5
1628	6.05221e+02	1.62800e+03	-0.0567105	604.0
1629	6.05708e+02	1.62900e+03	-0.0567143	604.5
1630	6.06200e+02	1.63000e+03	-0.056716	605.0
1631	6.06701e+02	1.63100e+03	-0.0567168	605.5
1632	6.07191e+02	1.63200e+03	-0.0567096	606.0
1633	6.07687e+02	1.63300e+03	-0.0567101	606.5
1634	6.08179e+02	1.63400e+03	-0.0567146	607.0
1635	6.08673e+02	1.63500e+03	-0.0567211	607.5
1636	6.09173e+02	1.63600e+03	-0.0567367	608.0
1637	6.09652e+02	1.63700e+03	-0.0567496	608.5
1638	6.10143e+02	1.63800e+03	-0.0567616	609.0
1639	6.10633e+02	1.63900e+03	-0.0567734	609.5
1640	6.11131e+02	1.64000e+03	-0.0567862	610.0
1641	6.11625e+02	1.64100e+03	-0.0567939	610.5
1642	6.12119e+02	1.64200e+03	-0.0567984	611.0
1643	6.12597e+02	1.64300e+03	-0.0568005	611.5
1644	6.13081e+02	1.64400e+03	-0.0567918	612.0
1645	6.13575e+02	1.64500e+03	-0.0567866	612.5
1646	6.14072e+02	1.64600e+03	-0.0567814	613.0
1647	6.14570e+02	1.64700e+03	-0.0567762	613.5
1648	6.15054e+02	1.64800e+03	-0.0567718	614.0
1649	6.15558e+02	1.64900e+03	-0.0567714	614.5
1650	6.16046e+02	1.65000e+03	-0.0567731	615.0
1651	6.16547e+02	1.65100e+03	-0.0567757	615.5
1652	6.17042e+02	1.65200e+03	-0.0567871	616.0
1653	6.17536e+02	1.65300e+03	-0.0567946	616.5
1654	6.18024e+02	1.65400e+03	-0.0568013	617.0
1655	6.18531e+02	1.65500e+03	-0.056808	617.5
1656	6.19010e+02	1.65600e+03	-0.0568175	618.0
1657	6.19495e+02	1.65700e+03	-0.0568303	618.5
1658	6.19998e+02	1.65800e+03	-0.0568475	619.0
1659	6.20470e+02	1.65900e+03	-0.0568672	619.5
1660	6.20977e+02	1.66000e+03	-0.0568896	620.0
1661	6.21463e+02	1.66100e+03	-0.056906	620.5
1662	6.21964e+02	1.66200e+03	-0.0569188	621.0
1663	6.22454e+02	1.66300e+03	-0.0569289	621.5
1664	6.22949e+02	1.66400e+03	-0.0569278	622.0
1665	6.23437e+02	1.66500e+03	-0.0569264	622.5
1666	6.23940e+02	1.66600e+03	-0.0569234	623.0
1667	6.24440e+02	1.66700e+03	-0.0569195	623.5
1668	6.24921e+02	1.66800e+03	-0.0569071	624.0
1669	6.25412e+02	1.66900e+03	-0.056903	624.5
1670	6.25914e+02	1.67000e+03	-0.0569021	625.0
1671	6.26397e+02	1.67100e+03	-0.0569025	625.5
1672	6.26895e+02	1.67200e+03	-0.0569127	626.0
1673	6.27383e+02	1.67300e+03	-0.0569205	626.5
1674	6.27882e+02	1.67400e+03	-0.0569293	627.0
1675	6.28372e+02	1.67500e+03	-0.0569392	627.5
1676	6.28868e+02	1.67600e+03	-0.0569543	628.0
1677	6.29359e+02	1.67700e+03	-0.0569682	628.5
1678	6.29863e+02	1.67800e+03	-0.0569821	629.0
1679	6.30356e+02	1.67900e+03	-0.0569956	629.5
1680	6.30862e+02	1.68000e+03	-0.0570068	630.0
1681	6.31350e+02	1.68100e+03	-0.057014	630.5
1682	6.31830e+02	1.68200e+03	-0.0570168	631.0
1683	6.32325e+02	1.68300e+03	-0.0570169	631.5
1684	6.32823e+02	1.68400e+03	-0.0570053	632.0
1685	6.33319e+02	1.68500e+03	-0.0569977	632.5
1686	6.33807e+02	1.68600e+03	-0.0569925	633.0
1687	6.34311e+02	1.68700e+03	-0.0569898	633.5
1688	6.34811e+02	1.68800e+03	-0.0569942	634.0
1689	6.35311e+02	1.68900e+03	-0.057006	634.5
1690	6.35816e+02	1.69000e+03	-0.0570227	635.0
1691	6.36298e+02	1.69100e+03	-0.0570423	635.5
1692	6.36803e+02	1.69200e+03	-0.057079	636.0
1693	6.37284e+02	1.69300e+03	-0.0571015	636.5
1694	6.37787e+02	1.69400e+03	-0.0571188	637.0
1695	6.38280e+02	1.69500e+03	-0.057134	637.5
1696	6.38775e+02	1.69600e+03	-0.0571375	638.0
1697	6.39247e+02	1.69700e+03	-0.0571429	638.5
1698	6.39738e+02	1.69800e+03	-0.0571466	639.0
1699	6.40237e+02	1.69900e+03	-0.0571495	639.5
1700	6.40717e+02	1.70000e+03	-0.0571479	640.0
1701	6.41223e+02	1.70100e+03	-0.0571527	640.5
1702	6.41760e+02	1.70200e+03	-0.0571611	641.0
1703	6.42275e+02	1.70300e+03	-0.057171	641.5
1704	6.42801e+02	1.70400e+03	-0.0571887	642.0
1705	6.43301e+02	1.70500e+03	-0.057204	642.5
1706	6.43803e+02	1.70600e+03	-0.0572196	643.0
1707	6.44293e+02	1.70700e+03	-0.0572358	643.5
1708	6.44795e+02	1.70800e+03	-0.0572537	644.0
1709	6.45282e+02	1.70900e+03	-0.0572697	644.5
1710	6.45790e+02	1.71000e+03	-0.0572856	645.0
1711	6.46291e+02	1.71100e+03	-0.0573017	645.5
1712	6.46810e+02	1.71200e+03	-0.0573183	646.0
1713	6.47333e+02	1.71300e+03	-0.0573354	646.5
1714	6.47834e+02	1.71400e+03	-0.0573516	647.0
1715	6.48328e+02	1.71500e+03	-0.0573668	647.5
1716	6.48820e+02	1.71600e+03	-0.0573783	648.0
1717	6.49307e+02	1.71700e+03	-0.0573855	648.5
1718	6.49782e+02	1.71800e+03	-0.0573887	649.0
1719	6.50278e+02	1.71900e+03	-0.0573894	649.5
1720	6.50765e+02	1.72000e+03	-0.0573759	650.0
1721	6.51244e+02	1.72100e+03	-0.0573672	650.5
1722	6.51710e+02	1.72200e+03	-0.0573579	651.0
1723	6.52196e+02	1.72300e+03	-0.0573474	651.5
1724	6.52672e+02	1.72400e+03	-0.0573334	652.0
1725	6.53155e+02	1.72500e+03	-0.0573239	652.5
1726	6.53637e+02	1.72600e+03	-0.0573183	653.0
1727	6.54118e+02	1.72700e+03	-0.0573154	653.5
1728	6.54603e+02	1.72800e+03	-0.0573242	654.0
1729	6.55104e+02	1.72900e+03	-0.057334	654.5
1730	6.55594e+02	1.73000e+03	-0.0573459	655.0
1731	6.56075e+02	1.73100e+03	-0.0573589	655.5
1732	6.56549e+02	1.73200e+03	-0.0573797	656.0
1733	6.57037e+02	1.73300e+03	-0.0573903	656.5
1734	6.57528e+02	1.73400e+03	-0.0573967	657.0
1735	6.58019e+02	1.73500e+03	-0.0574014	657.5
1736	6.58508e+02	1.73600e+03	-0.0573935	658.0
1737	6.59003e+02	1.73700e+03	-0.0573909	658.5
1738	6.59487e+02	1.73800e+03	-0.05739	659.0
1739	6.59979e+02	1.73900e+03	-0.05739	659.5
1740	6.60484e+02	1.74000e+03	-0.0573933	660.0
1741	6.60970e+02	1.74100e+03	-0.0574044	660.5
1742	6.61465e+02	1.74200e+03	-0.0574247	661.0
1743	6.61958e+02	1.74300e+03	-0.0574506	661.5
1744	6.62443e+02	1.74400e+03	-0.0575034	662.0
1745	6.62946e+02	1.74500e+03	-0.0575512	662.5
1746	6.63436e+02	1.74600e+03	-0.0575958	663.0
1747	6.63905e+02	1.74700e+03	-0.0576362	663.5
1748	6.64402e+02	1.74800e+03	-0.0576736	664.0
1749	6.64894e+02	1.74900e+03	-0.0576915	664.5
1750	6.65387e+02	1.75000e+03	-0.0576959	665.0
1751	6.65871e+02	1.75100e+03	-0.0576928	665.5
1752	6.66361e+02	1.75200e+03	-0.0576402	666.0
1753	6.66858e+02	1.75300e+03	-0.0576061	666.5
1754	6.67355e+02	1.75400e+03	-0.0575737	667.0
1755	6.67842e+02	1.75500e+03	-0.0575405	667.5
1756	6.68323e+02	1.75600e+03	-0.0575007	668.0
1757	6.68812e+02	1.75700e+03	-0.0574726	668.5
1758	6.69301e+02	1.75800e+03	-0.0574529	669.0
1759	6.69790e+02	1.75900e+03	-0.0574388	669.5
1760	6.70282e+02	1.76000e+03	-0.0574514	670.0
1761	6.70767e+02	1.76100e+03	-0.0574595	670.5
1762	6.71255e+02	1.76200e+03	-0.057469	671.0
1763	6.71739e+02	1.76300e+03	-0.0574794	671.5
1764	6.72221e+02	1.76400e+03	-0.0575024	672.0
1765	6.72697e+02	1.76500e+03	-0.0575127	672.5
1766	6.73183e+02	1.76600e+03	-0.057517	673.0
1767	6.73669e+02	1.76700e+03	-0.0575178	673.5
1768	6.74166e+02	1.76800e+03	-0.057499	674.0
1769	6.74652e+02	1.76900e+03	-0.0574843	674.5
1770	6.75144e+02	1.77000e+03	-0.0574675	675.0
1771	6.75634e+02	1.77100e+03	-0.0574485	675.5
1772	6.76127e+02	1.77200e+03	-0.057414	676.0
1773	6.76623e+02	1.77300e+03	-0.0573828	676.5
1774	6.77111e+02	1.77400e+03	-0.0573501	677.0
1775	6.77610e+02	1.77500e+03	-0.0573157	677.5
1776	6.78102e+02	1.77600e+03	-0.0572792	678.0
1777	6.78608e+02	1.77700e+03	-0.0572507	678.5
1778	6.79097e+02	1.77800e+03	-0.0572267	679.0
1779	6.79599e+02	1.77900e+03	-0.0572049	679.5
1780	6.80089e+02	1.78000e+03	-0.0572002	680.0
1781	6.80575e+02	1.78100e+03	-0.057196	680.5
1782	6.81071e+02	1.78200e+03	-0.0571966	681.0
1783	6.81562e+02	1.78300e+03	-0.0572003	681.5
1784	6.82042e+02	1.78400e+03	-0.0572217	682.0
1785	6.82528e+02	1.78500e+03	-0.0572339	682.5
1786	6.83008e+02	1.78600e+03	-0.0572429	683.0
1787	6.83494e+02	1.78700e+03	-0.057251	683.5
1788	6.83974e+02	1.78800e+03	-0.0572588	684.0
1789	6.84480e+02	1.78900e+03	-0.057268	684.5
1790	6.84959e+02	1.79000e+03	-0.057281	685.0
1791	6.85455e+02	1.79100e+03	-0.0572967	685.5
1792	6.85945e+02	1.79200e+03	-0.0573209	686.0
1793	6.86440e+02	1.79300e+03	-0.057352	686.5
1794	6.86959e+02	1.79400e+03	-0.0573864	687.0
1795	6.87163e+02	1.79500e+03	-0.057421	687.5
1796	6.87345e+02	1.79600e+03	-0.0574608	688.0
1797	6.87642e+02	1.79700e+03	-0.0574843	688.5
1798	6.88004e+02	1.79800e+03	-0.0575009	689.0
1799	6.88369e+02	1.79900e+03	-0.0575141	689.5
1800	6.88726e+02	1.80000e+03	-0.0574997	690.0
1801	6.89075e+02	1.80100e+03	-0.0575034	690.5
1802	6.89411e+02	1.80200e+03	-0.0575187	691.0
1803	6.89729e+02	1.80300e+03	-0.0575407	691.5
1804	6.90052e+02	1.80400e+03	-0.0575716	692.0
1805	6.90337e+02	1.80500e+03	-0.0576022	692.5
1806	6.90636e+02	1.80600e+03	-0.0576316	693.0
1807	6.90908e+02	1.80700e+03	-0.0576587	693.5
1808	6.91178e+02	1.80800e+03	-0.0576838	694.0
1809	6.91450e+02	1.80900e+03	-0.0576925	694.5
1810	6.91700e+02	1.81000e+03	-0.0576897	695.0
1811	6.91934e+02	1.81100e+03	-0.0576799	695.5
1812	6.92188e+02	1.81200e+03	-0.0576312	696.0
1813	6.92417e+02	1.81300e+03	-0.0575977	696.5
1814	6.92641e+02	1.81400e+03	-0.0575661	697.0
1815	6.92845e+02	1.81500e+03	-0.0575344	697.5
1816	6.93051e+02	1.81600e+03	-0.0575046	698.0
1817	6.93261e+02	1.81700e+03	-0.0574862	698.5
1818	6.93458e+02	1.81800e+03	-0.0574752	699.0
1819	6.93643e+02	1.81900e+03	-0.0574685	699.5
1820	6.93835e+02	1.82000e+03	-0.0574911	700.0
1821	6.94013e+02	1.82100e+03	-0.0575054	700.0
1822	6.94180e+02	1.82200e+03	-0.0575203	700.0
1823	6.94353e+02	1.82300e+03	-0.0575368	700.0
1824	6.94521e+02	1.82400e+03	-0.0575626	700.0
1825	6.94687e+02	1.82500e+03	-0.05758	700.0
1826	6.94848e+02	1.82600e+03	-0.0575937	700.0
1827	6.95002e+02	1.82700e+03	-0.0576058	700.0
1828	6.95142e+02	1.82800e+03	-0.0576061	700.0
1829	6.95292e+02	1.82900e+03	-0.0576057	700.0
1830	6.95435e+02	1.83000e+03	-0.0576042	700.0
1831	6.95552e+02	1.83100e+03	-0.057603	700.0
1832	6.95680e+02	1.83200e+03	-0.0576019	700.0
1833	6.95810e+02	1.83300e+03	-0.0576139	700.0
1834	6.95934e+02	1.83400e+03	-0.0576352	700.0
1835	6.96049e+02	1.83500e+03	-0.0576611	700.0
1836	6.96175e+02	1.83600e+03	-0.0577077	700.0
1837	6.96277e+02	1.83700e+03	-0.0577391	700.0
1838	6.96386e+02	1.83800e+03	-0.0577616	700.0
1839	6.96506e+02	1.83900e+03	-0.0577788	700.0
1840	6.96604e+02	1.84000e+03	-0.0577792	700.0
1841	6.96701e+02	1.84100e+03	-0.0577749	700.0
1842	6.96803e+02	1.84200e+03	-0.0577634	700.0
1843	6.96901e+02	1.84300e+03	-0.0577473	700.0
1844	6.97001e+02	1.84400e+03	-0.0577017	700.0
1845	6.97094e+02	1.84500e+03	-0.0576707	700.0
1846	6.97179e+02	1.84600e+03	-0.0576461	700.0
1847	6.97264e+02	1.84700e+03	-0.0576249	700.0
1848	6.97346e+02	1.84800e+03	-0.0576136	700.0
1849	6.97429e+02	1.84900e+03	-0.0576085	700.0
1850	6.97513e+02	1.85000e+03	-0.05761	700.0
1851	6.97600e+02	1.85100e+03	-0.0576163	700.0
1852	6.97672e+02	1.85200e+03	-0.0576481	700.0
1853	6.97744e+02	1.85300e+03	-0.0576678	700.0
1854	6.97816e+02	1.85400e+03	-0.0576845	700.0
1855	6.97885e+02	1.85500e+03	-0.0577004	700.0
1856	6.97947e+02	1.85600e+03	-0.057717	700.0
1857	6.98025e+02	1.85700e+03	-0.0577329	700.0
1858	6.98084e+02	1.85800e+03	-0.0577487	700.0
1859	6.98136e+02	1.85900e+03	-0.0577631	700.0
1860	6.98196e+02	1.86000e+03	-0.0577681	700.0
1861	6.98267e+02	1.86100e+03	-0.0577731	700.0
1862	6.98318e+02	1.86200e+03	-0.0577752	700.0
1863	6.98376e+02	1.86300e+03	-0.0577749	700.0
1864	6.98416e+02	1.86400e+03	-0.0577625	700.0
1865	6.98488e+02	1.86500e+03	-0.0577516	700.0
1866	6.98532e+02	1.86600e+03	-0.0577387	700.0
1867	6.98589e+02	1.86700e+03	-0.0577241	700.0
1868	6.98629e+02	1.86800e+03	-0.0576993	700.0
1869	6.98685e+02	1.86900e+03	-0.0576786	700.0
1870	6.98729e+02	1.87000e+03	-0.057659	700.0
1871	6.98775e+02	1.87100e+03	-0.0576401	700.0
1872	6.98823e+02	1.87200e+03	-0.0576294	700.0
1873	6.98868e+02	1.87300e+03	-0.0576238	700.0
1874	6.98911e+02	1.87400e+03	-0.057622	700.0
1875	6.98956e+02	1.87500e+03	-0.0576238	700.0
1876	6.98993e+02	1.87600e+03	-0.0576484	700.0
1877	6.99038e+02	1.87700e+03	-0.0576648	700.0
1878	6.99076e+02	1.87800e+03	-0.0576796	700.0
1879	6.99122e+02	1.87900e+03	-0.057694	700.0
1880	6.99156e+02	1.88000e+03	-0.0577125	700.0
1881	6.99193e+02	1.88100e+03	-0.0577269	700.0
1882	6.99225e+02	1.88200e+03	-0.0577431	700.0
1883	6.99260e+02	1.88300e+03	-0.0577611	700.0
1884	6.99296e+02	1.88400e+03	-0.0577739	700.0
1885	6.99317e+02	1.88500e+03	-0.057789	700.0
1886	6.99354e+02	1.88600e+03	-0.0578043	700.0
1887	6.99386e+02	1.88700e+03	-0.0578192	700.0
1888	6.99409e+02	1.88800e+03	-0.0578349	700.0
1889	6.99447e+02	1.88900e+03	-0.0578476	700.0
1890	6.99471e+02	1.89000e+03	-0.0578577	700.0
1891	6.99490e+02	1.89100e+03	-0.057866	700.0
1892	6.99517e+02	1.89200e+03	-0.0578645	700.0
1893	6.99544e+02	1.89300e+03	-0.0578628	700.0
1894	6.99567e+02	1.89400e+03	-0.0578589	700.0
1895	6.99601e+02	1.89500e+03	-0.0578533	700.0
1896	6.99610e+02	1.89600e+03	-0.0578368	700.0
1897	6.99628e+02	1.89700e+03	-0.0578248	700.0
1898	6.99654e+02	1.89800e+03	-0.0578134	700.0
1899	6.99671e+02	1.89900e+03	-0.0578019	700.0
1900	6.99694e+02	1.90000e+03	-0.0577918	700.0
1901	6.99715e+02	1.90100e+03	-0.0577879	700.0
1902	6.99734e+02	1.90200e+03	-0.0577892	700.0
1903	6.99746e+02	1.90300e+03	-0.0577923	700.0
1904	6.99764e+02	1.90400e+03	-0.0578053	700.0
1905	6.99787e+02	1.90500e+03	-0.0578135	700.0
1906	6.99805e+02	1.90600e+03	-0.0578208	700.0
1907	6.99815e+02	1.90700e+03	-0.0578277	700.0
1908	6.99852e+02	1.90800e+03	-0.0578258	700.0
1909	6.99867e+02	1.90900e+03	-0.0578073	700.0
1910	6.99877e+02	1.91000e+03	-0.0577705	700.0
1911	6.99898e+02	1.91100e+03	-0.0577235	700.0
1912	6.99917e+02	1.91200e+03	-0.0576535	700.0
1913	6.99911e+02	1.91300e+03	-0.0576181	700.0
1914	6.99929e+02	1.91400e+03	-0.0576153	700.0
1915	6.99947e+02	1.91500e+03	-0.0576352	700.0
1916	6.99973e+02	1.91600e+03	-0.0577196	700.0
1917	6.99971e+02	1.91700e+03	-0.057802	700.0
1918	6.99991e+02	1.91800e+03	-0.0578874	700.0
1919	6.99997e+02	1.91900e+03	-0.0579734	700.0
1920	7.00013e+02	1.92000e+03	-0.0581046	700.0
1921	7.00024e+02	1.92100e+03	-0.05818	700.0
1922	7.00038e+02	1.92200e+03	-0.0582282	700.0
1923	7.00055e+02	1.92300e+03	-0.0582626	700.0
1924	7.00063e+02	1.92400e+03	-0.058216	700.0
1925	7.00067e+02	1.92500e+03	-0.0581904	700.0
1926	7.00087e+02	1.92600e+03	-0.058151	700.0
1927	7.00104e+02	1.92700e+03	-0.0580964	700.0
1928	7.00123e+02	1.92800e+03	-0.0579813	700.0
1929	7.00131e+02	1.92900e+03	-0.0578793	700.0
1930	7.00140e+02	1.93000e+03	-0.0577794	700.0
1931	7.00144e+02	1.93100e+03	-0.0576831	700.0
1932	7.00157e+02	1.93200e+03	-0.0575859	700.0
1933	7.00179e+02	1.93300e+03	-0.0575299	700.0
1934	7.00180e+02	1.93400e+03	-0.0575101	700.0
1935	7.00179e+02	1.93500e+03	-0.0575159	700.0
1936	7.00193e+02	1.93600e+03	-0.0576432	700.0
1937	7.00207e+02	1.93700e+03	-0.0577518	700.0
1938	7.00214e+02	1.93800e+03	-0.0578713	700.0
1939	7.00227e+02	1.93900e+03	-0.0579996	700.0
1940	7.00241e+02	1.94000e+03	-0.0581861	700.0
1941	7.00244e+02	1.94100e+03	-0.0583119	700.0
1942	7.00251e+02	1.94200e+03	-0.0584083	700.0
1943	7.00261e+02	1.94300e+03	-0.0584885	700.0
1944	7.00272e+02	1.94400e+03	-0.0584867	700.0
1945	7.00281e+02	1.94500e+03	-0.0584974	700.0
1946	7.00292e+02	1.94600e+03	-0.058494	700.0
1947	7.00289e+02	1.94700e+03	-0.0584772	700.0
1948	7.00317e+02	1.94800e+03	-0.0583743	700.0
1949	7.00332e+02	1.94900e+03	-0.0582823	700.0
1950	7.00330e+02	1.95000e+03	-0.0581795	700.0
1951	7.00329e+02	1.95100e+03	-0.058071	700.0
1952	7.00335e+02	1.95200e+03	-0.0579399	700.0
1953	7.00346e+02	1.95300e+03	-0.0578637	700.0
1954	7.00348e+02	1.95400e+03	-0.0578261	700.0
1955	7.00358e+02	1.95500e+03	-0.0578101	700.0
1956	7.00367e+02	1.95600e+03	-0.0578848	700.0
1957	7.00368e+02	1.95700e+03	-0.0579322	700.0
1958	7.00373e+02	1.95800e+03	-0.0579764	700.0
1959	7.00384e+02	1.95900e+03	-0.0580191	700.0
1960	7.00392e+02	1.96000e+03	-0.0580877	700.0
1961	7.00394e+02	1.96100e+03	-0.0581218	700.0
1962	7.00396e+02	1.96200e+03	-0.0581414	700.0
1963	7.00408e+02	1.96300e+03	-0.0581552	700.0
1964	7.00418e+02	1.96400e+03	-0.0581172	700.0
1965	7.00420e+02	1.96500e+03	-0.058099	700.0
1966	7.00422e+02	1.96600e+03	-0.0580796	700.0
1967	7.00433e+02	1.96700e+03	-0.0580562	700.0
1968	7.00439e+02	1.96800e+03	-0.0580173	700.0
1969	7.00434e+02	1.96900e+03	-0.0579799	700.0
1970	7.00444e+02	1.97000e+03	-0.0579404	700.0
1971	7.00460e+02	1.97100e+03	-0.0578999	700.0
1972	7.00454e+02	1.97200e+03	-0.0578495	700.0
1973	7.00466e+02	1.97300e+03	-0.0578047	700.0
1974	7.00466e+02	1.97400e+03	-0.0577619	700.0
1975	7.00473e+02	1.97500e+03	-0.05772	700.0
1976	7.00478e+02	1.97600e+03	-0.057684	700.0
1977	7.00486e+02	1.97700e+03	-0.0576512	700.0
1978	7.00491e+02	1.97800e+03	-0.0576238	700.0
1979	7.00490e+02	1.97900e+03	-0.0576006	700.0
1980	7.00493e+02	1.98000e+03	-0.0576007	700.0
1981	7.00487e+02	1.98100e+03	-0.0576017	700.0
1982	7.00495e+02	1.98200e+03	-0.0576087	700.0
1983	7.00503e+02	1.98300e+03	-0.0576204	700.0
1984	7.00496e+02	1.98400e+03	-0.0576607	700.0
1985	7.00502e+02	1.98500e+03	-0.0576909	700.0
1986	7.00510e+02	1.98600e+03	-0.057721	700.0
1987	7.00514e+02	1.98700e+03	-0.0577521	700.0
1988	7.00516e+02	1.98800e+03	-0.0577884	700.0
1989	7.00513e+02	1.98900e+03	-0.0578188	700.0
1990	7.00516e+02	1.99000e+03	-0.0578467	700.0
1991	7.00525e+02	1.99100e+03	-0.0578735	700.0
1992	7.00516e+02	1.99200e+03	-0.0578931	700.0
1993	7.00521e+02	1.99300e+03	-0.057916	700.0
1994	7.00531e+02	1.99400e+03	-0.05794	700.0
1995	7.00538e+02	1.99500e+03	-0.0579645	700.0
1996	7.00530e+02	1.99600e+03	-0.057991	700.0
1997	7.00545e+02	1.99700e+03	-0.0580189	700.0
1998	7.00540e+02	1.99800e+03	-0.0580471	700.0
1999	7.00536e+02	1.99900e+03	-0.0580751	700.0
2000	7.00552e+02	2.00000e+03	-0.0581033	700.0
2001	7.00549e+02	2.00100e+03	-0.0581262	700.0
2002	7.00553e+02	2.00200e+03	-0.0581453	700.0
2003	7.00555e+02	2.00300e+03	-0.0581621	700.0
2004	7.00556e+02	2.00400e+03	-0.0581642	700.0
2005	7.00560e+02	2.00500e+03	-0.0581682	700.0
2006	7.00557e+02	2.00600e+03	-0.0581674	700.0
2007	7.00565e+02	2.00700e+03	-0.0581619	700.0
2008	7.00563e+02	2.00800e+03	-0.0581421	700.0
2009	7.00558e+02	2.00900e+03	-0.0581284	700.0
2010	7.00567e+02	2.01000e+03	-0.0581169	700.0
2011	7.00570e+02	2.01100e+03	-0.0581065	700.0
2012	7.00589e+02	2.01200e+03	-0.0580965	700.0
2013	7.00573e+02	2.01300e+03	-0.0580887	700.0
2014	7.00572e+02	2.01400e+03	-0.0580813	700.0
2015	7.00577e+02	2.01500e+03	-0.0580754	700.0
2016	7.00580e+02	2.01600e+03	-0.0580807	700.0
2017	7.00581e+02	2.01700e+03	-0.0580835	700.0
2018	7.00585e+02	2.01800e+03	-0.0580903	700.0
2019	7.00589e+02	2.01900e+03	-0.0581011	700.0
2020	7.00588e+02	2.02000e+03	-0.0581173	700.0
2021	7.00581e+02	2.02100e+03	-0.0581314	700.0
2022	7.00577e+02	2.02200e+03	-0.0581459	700.0
2023	7.00585e+02	2.02300e+03	-0.0581609	700.0
2024	7.00592e+02	2.02400e+03	-0.0581817	700.0
2025	7.00595e+02	2.02500e+03	-0.0582008	700.0
2026	7.00595e+02	2.02600e+03	-0.0582197	700.0
2027	7.00598e+02	2.02700e+03	-0.0582387	700.0
2028	7.00596e+02	2.02800e+03	-0.0582534	700.0
2029	7.00602e+02	2.02900e+03	-0.0582637	700.0
2030	7.00599e+02	2.03000e+03	-0.0582724	700.0
2031	7.00592e+02	2.03100e+03	-0.0582805	700.0
2032	7.00601e+02	2.03200e+03	-0.0582804	700.0
2033	7.00594e+02	2.03300e+03	-0.0582855	700.0
2034	7.00605e+02	2.03400e+03	-0.0582911	700.0
2035	7.00597e+02	2.03500e+03	-0.0582964	700.0
2036	7.00599e+02	2.03600e+03	-0.0583011	700.0
2037	7.00598e+02	2.03700e+03	-0.0583031	700.0
2038	7.00607e+02	2.03800e+03	-0.0583034	700.0
2039	7.00598e+02	2.03900e+03	-0.0583027	700.0
2040	7.00605e+02	2.04000e+03	-0.0582952	700.0
2041	7.00606e+02	2.04100e+03	-0.05829	700.0
2042	7.00608e+02	2.04200e+03	-0.0582848	700.0
2043	7.00606e+02	2.04300e+03	-0.0582793	700.0
2044	7.00608e+02	2.04400e+03	-0.0582726	700.0
2045	7.00603e+02	2.04500e+03	-0.0582672	700.0
2046	7.00611e+02	2.04600e+03	-0.0582618	700.0
2047	7.00608e+02	2.04700e+03	-0.0582563	700.0
2048	7.00611e+02	2.04800e+03	-0.0582503	700.0
2049	7.00614e+02	2.04900e+03	-0.0582408	700.0
2050	7.00618e+02	2.05000e+03	-0.0582294	700.0
2051	7.00609e+02	2.05100e+03	-0.0582185	700.0
2052	7.00613e+02	2.05200e+03	-0.0582114	700.0
2053	7.00605e+02	2.05300e+03	-0.0582083	700.0
2054	7.00612e+02	2.05400e+03	-0.0582064	700.0
2055	7.00612e+02	2.05500e+03	-0.0582056	700.0
2056	7.00613e+02	2.05600e+03	-0.0582172	700.0
2057	7.00607e+02	2.05700e+03	-0.0582219	700.0
2058	7.00616e+02	2.05800e+03	-0.0582234	700.0
2059	7.00618e+02	2.05900e+03	-0.0582234	700.0
2060	7.00615e+02	2.06000e+03	-0.0582127	700.0
2061	7.00624e+02	2.06100e+03	-0.0582006	700.0
2062	7.00618e+02	2.06200e+03	-0.0581872	700.0
2063	7.00620e+02	2.06300e+03	-0.0581733	700.0
2064	7.00624e+02	2.06400e+03	-0.0581536	700.0
2065	7.00623e+02	2.06500e+03	-0.0581444	700.0
2066	7.00622e+02	2.06600e+03	-0.0581404	700.0
2067	7.00616e+02	2.06700e+03	-0.058139	700.0
2068	7.00619e+02	2.06800e+03	-0.0581555	700.0
2069	7.00616e+02	2.06900e+03	-0.0581659	700.0
2070	7.00621e+02	2.07000e+03	-0.0581763	700.0
2071	7.00623e+02	2.07100e+03	-0.0581875	700.0
2072	7.00622e+02	2.07200e+03	-0.0582036	700.0
2073	7.00613e+02	2.07300e+03	-0.0582167	700.0
2074	7.00618e+02	2.07400e+03	-0.0582276	700.0
2075	7.00622e+02	2.07500e+03	-0.0582357	700.0
2076	7.00629e+02	2.07600e+03	-0.0582361	700.0
2077	7.00617e+02	2.07700e+03	-0.058238	700.0
2078	7.00631e+02	2.07800e+03	-0.0582407	700.0
2079	7.00627e+02	2.07900e+03	-0.0582439	700.0
2080	7.00619e+02	2.08000e+03	-0.0582426	700.0
2081	7.00621e+02	2.08100e+03	-0.0582465	700.0
2082	7.00630e+02	2.08200e+03	-0.0582519	700.0
2083	7.00634e+02	2.08300e+03	-0.0582576	700.0
2084	7.00625e+02	2.08400e+03	-0.0582671	700.0
2085	7.00630e+02	2.08500e+03	-0.0582712	700.0
2086	7.00625e+02	2.08600e+03	-0.0582724	700.0
2087	7.00632e+02	2.08700e+03	-0.0582718	700.0
2088	7.00622e+02	2.08800e+03	-0.0582605	700.0
2089	7.00625e+02	2.08900e+03	-0.0582503	700.0
2090	7.00625e+02	2.09000e+03	-0.0582383	700.0
2091	7.00627e+02	2.09100e+03	-0.0582247	700.0
2092	7.00630e+02	2.09200e+03	-0.0582029	700.0
2093	7.00631e+02	2.09300e+03	-0.0581862	700.0
2094	7.00637e+02	2.09400e+03	-0.058172	700.0
2095	7.00628e+02	2.09500e+03	-0.0581594	700.0
2096	7.00643e+02	2.09600e+03	-0.0581551	700.0
2097	7.00632e+02	2.09700e+03	-0.058154	700.0
2098	7.00632e+02	2.09800e+03	-0.0581571	700.0
2099	7.00642e+02	2.09900e+03	-0.0581631	700.0
2100	7.00639e+02	2.10000e+03	-0.0581876	700.0
2101	7.00633e+02	2.10100e+03	-0.0582073	700.0
2102	7.00629e+02	2.10200e+03	-0.0582282	700.0
2103	7.00638e+02	2.10300e+03	-0.0582505	700.0
2104	7.00635e+02	2.10400e+03	-0.0582801	700.0
2105	7.00639e+02	2.10500e+03	-0.0583046	700.0
2106	7.00634e+02	2.10600e+03	-0.0583269	700.0
2107	7.00640e+02	2.10700e+03	-0.0583479	700.0
2108	7.00639e+02	2.10800e+03	-0.0583598	700.0
2109	7.00648e+02	2.10900e+03	-0.0583661	700.0
2110	7.00638e+02	2.11000e+03	-0.0583638	700.0
2111	7.00637e+02	2.11100e+03	-0.0583555	700.0
2112	7.00634e+02	2.11200e+03	-0.05832	700.0
2113	7.00648e+02	2.11300e+03	-0.0582881	700.0
2114	7.00639e+02	2.11400e+03	-0.0582528	700.0
2115	7.00639e+02	2.11500e+03	-0.0582154	700.0
2116	7.00642e+02	2.11600e+03	-0.0581652	700.0
2117	7.00644e+02	2.11700e+03	-0.0581301	700.0
2118	7.00635e+02	2.11800e+03	-0.0581017	700.0
2119	7.00638e+02	2.11900e+03	-0.0580768	700.0
2120	7.00643e+02	2.12000e+03	-0.0580722	700.0
2121	7.00643e+02	2.12100e+03	-0.058063	700.0
2122	7.00636e+02	2.12200e+03	-0.0580563	700.0
2123	7.00633e+02	2.12300e+03	-0.0580522	700.0
2124	7.00635e+02	2.12400e+03	-0.0580619	700.0
2125	7.00643e+02	2.12500e+03	-0.0580676	700.0
2126	7.00636e+02	2.12600e+03	-0.0580745	700.0
2127	7.00637e+02	2.12700e+03	-0.0580828	700.0
2128	7.00635e+02	2.12800e+03	-0.0580985	700.0
2129	7.00638e+02	2.12900e+03	-0.0581122	700.0
2130	7.00640e+02	2.13000e+03	-0.0581262	700.0
2131	7.00633e+02	2.13100e+03	-0.0581406	700.0
2132	7.00634e+02	2.13200e+03	-0.058158	700.0
2133	7.00628e+02	2.13300e+03	-0.058174	700.0
2134	7.00640e+02	2.13400e+03	-0.0581904	700.0
2135	7.00641e+02	2.13500e+03	-0.0582075	700.0
2136	7.00628e+02	2.13600e+03	-0.058228	700.0
2137	7.00631e+02	2.13700e+03	-0.0582509	700.0
2138	7.00637e+02	2.13800e+03	-0.0582768	700.0
2139	7.00635e+02	2.13900e+03	-0.0583047	700.0
2140	7.00632e+02	2.14000e+03	-0.0583434	700.0
2141	7.00640e+02	2.14100e+03	-0.0583786	700.0
2142	7.00638e+02	2.14200e+03	-0.0584123	700.0
2143	7.00639e+02	2.14300e+03	-0.0584448	700.0
2144	7.00641e+02	2.14400e+03	-0.0584729	700.0
2145	7.00632e+02	2.14500e+03	-0.058494	700.0
2146	7.00636e+02	2.14600e+03	-0.0585096	700.0
2147	7.00635e+02	2.14700e+03	-0.0585218	700.0
2148	7.00637e+02	2.14800e+03	-0.0585118	700.0
2149	7.00640e+02	2.14900e+03	-0.0585089	700.0
2150	7.00638e+02	2.15000e+03	-0.0585061	700.0
2151	7.00632e+02	2.15100e+03	-0.0585026	700.0
2152	7.00639e+02	2.15200e+03	-0.0584947	700.0
2153	7.00632e+02	2.15300e+03	-0.0584926	700.0
2154	7.00638e+02	2.15400e+03	-0.0584937	700.0
2155	7.00631e+02	2.15500e+03	-0.0584965	700.0
2156	7.00635e+02	2.15600e+03	-0.0585051	700.0
2157	7.00640e+02	2.15700e+03	-0.0585078	700.0
2158	7.00645e+02	2.15800e+03	-0.0585074	700.0
2159	7.00641e+02	2.15900e+03	-0.0585045	700.0
2160	7.00635e+02	2.16000e+03	-0.058494	700.0
2161	7.00635e+02	2.16100e+03	-0.0584855	700.0
2162	7.00626e+02	2.16200e+03	-0.058478	700.0
2163	7.00631e+02	2.16300e+03	-0.0584709	700.0
2164	7.00627e+02	2.16400e+03	-0.0584596	700.0
2165	7.00631e+02	2.16500e+03	-0.0584532	700.0
2166	7.00630e+02	2.16600e+03	-0.0584487	700.0
2167	7.00630e+02	2.16700e+03	-0.0584451	700.0
2168	7.00631e+02	2.16800e+03	-0.0584482	700.0
2169	7.00630e+02	2.16900e+03	-0.0584483	700.0
2170	7.00633e+02	2.17000e+03	-0.0584482	700.0
2171	7.00628e+02	2.17100e+03	-0.0584482	700.0
2172	7.00626e+02	2.17200e+03	-0.0584486	700.0
2173	7.00630e+02	2.17300e+03	-0.0584466	700.0
2174	7.00633e+02	2.17400e+03	-0.0584402	700.0
2175	7.00631e+02	2.17500e+03	-0.0584308	700.0
2176	7.00631e+02	2.17600e+03	-0.0584172	700.0
2177	7.00638e+02	2.17700e+03	-0.0584056	700.0
2178	7.00631e+02	2.17800e+03	-0.0583948	700.0
2179	7.00631e+02	2.17900e+03	-0.0583846	700.0
2180	7.00627e+02	2.18000e+03	-0.0583739	700.0
2181	7.00630e+02	2.18100e+03	-0.0583667	700.0
2182	7.00635e+02	2.18200e+03	-0.058362	700.0
2183	7.00625e+02	2.18300e+03	-0.0583589	700.0
2184	7.00630e+02	2.18400e+03	-0.0583655	700.0
2185	7.00639e+02	2.18500e+03	-0.0583704	700.0
2186	7.00632e+02	2.18600e+03	-0.0583752	700.0
2187	7.00631e+02	2.18700e+03	-0.0583788	700.0
2188	7.00630e+02	2.18800e+03	-0.0583843	700.0
2189	7.00629e+02	2.18900e+03	-0.058388	700.0
2190	7.00633e+02	2.19000e+03	-0.0583923	700.0
2191	7.00624e+02	2.19100e+03	-0.0583971	700.0
2192	7.00632e+02	2.19200e+03	-0.058399	700.0
2193	7.00627e+02	2.19300e+03	-0.0584038	700.0
2194	7.00624e+02	2.19400e+03	-0.0584096	700.0
2195	7.00621e+02	2.19500e+03	-0.0584159	700.0
2196	7.00614e+02	2.19600e+03	-0.0584263	700.0
2197	7.00622e+02	2.19700e+03	-0.0584353	700.0
2198	7.00622e+02	2.19800e+03	-0.0584444	700.0
2199	7.00625e+02	2.19900e+03	-0.0584539	700.0
2200	7.00620e+02	2.20000e+03	-0.0584652	700.0
2201	7.00617e+02	2.20100e+03	-0.0584763	700.0
2202	7.00628e+02	2.20200e+03	-0.0584873	700.0
2203	7.00618e+02	2.20300e+03	-0.0584983	700.0
2204	7.00623e+02	2.20400e+03	-0.058509	700.0
2205	7.00618e+02	2.20500e+03	-0.058518	700.0
2206	7.00619e+02	2.20600e+03	-0.0585259	700.0
2207	7.00615e+02	2.20700e+03	-0.0585332	700.0
2208	7.00617e+02	2.20800e+03	-0.0585346	700.0
2209	7.00613e+02	2.20900e+03	-0.0585338	700.0
2210	7.00613e+02	2.21000e+03	-0.0585253	700.0
2211	7.00607e+02	2.21100e+03	-0.0585108	700.0
2212	7.00610e+02	2.21200e+03	-0.0584796	700.0
2213	7.00611e+02	2.21300e+03	-0.0584502	700.0
2214	7.00616e+02	2.21400e+03	-0.0584191	700.0
2215	7.00614e+02	2.21500e+03	-0.0583867	700.0
2216	7.00615e+02	2.21600e+03	-0.0583428	700.0
2217	7.00610e+02	2.21700e+03	-0.0583102	700.0
2218	7.00612e+02	2.21800e+03	-0.0582833	700.0
2219	7.00613e+02	2.21900e+03	-0.0582596	700.0
2220	7.00610e+02	2.22000e+03	-0.0582572	700.0
2221	7.00609e+02	2.22100e+03	-0.0582557	700.0
2222	7.00611e+02	2.22200e+03	-0.0582608	700.0
2223	7.00604e+02	2.22300e+03	-0.0582711	700.0
2224	7.00595e+02	2.22400e+03	-0.0583104	700.0
2225	7.00603e+02	2.22500e+03	-0.0583425	700.0
2226	7.00606e+02	2.22600e+03	-0.0583763	700.0
2227	7.00603e+02	2.22700e+03	-0.0584122	700.0
2228	7.00599e+02	2.22800e+03	-0.0584602	700.0
2229	7.00602e+02	2.22900e+03	-0.0584972	700.0
2230	7.00604e+02	2.23000e+03	-0.0585272	700.0
2231	7.00601e+02	2.23100e+03	-0.0585536	700.0
2232	7.00595e+02	2.23200e+03	-0.058568	700.0
2233	7.00598e+02	2.23300e+03	-0.0585845	700.0
2234	7.00605e+02	2.23400e+03	-0.0585996	700.0
2235	7.00598e+02	2.23500e+03	-0.0586133	700.0
2236	7.00600e+02	2.23600e+03	-0.0586156	700.0
2237	7.00601e+02	2.23700e+03	-0.0586222	700.0
2238	7.00603e+02	2.23800e+03	-0.0586288	700.0
2239	7.00595e+02	2.23900e+03	-0.0586346	700.0
2240	7.00599e+02	2.24000e+03	-0.0586375	700.0
2241	7.00596e+02	2.24100e+03	-0.0586408	700.0
2242	7.00595e+02	2.24200e+03	-0.0586437	700.0
2243	7.00595e+02	2.24300e+03	-0.0586463	700.0
2244	7.00590e+02	2.24400e+03	-0.0586465	700.0
2245	7.00596e+02	2.24500e+03	-0.0586475	700.0
2246	7.00596e+02	2.24600e+03	-0.0586485	700.0
2247	7.00596e+02	2.24700e+03	-0.0586493	700.0
2248	7.00592e+02	2.24800e+03	-0.0586492	700.0
2249	7.00592e+02	2.24900e+03	-0.0586494	700.0
2250	7.00589e+02	2.25000e+03	-0.0586497	700.0
2251	7.00594e+02	2.25100e+03	-0.0586499	700.0
2252	7.00587e+02	2.25200e+03	-0.0586498	700.0
2253	7.00586e+02	2.25300e+03	-0.0586499	700.0
2254	7.00591e+02	2.25400e+03	-0.0586499	700.0
2255	7.00593e+02	2.25500e+03	-0.05865	700.0
2256	7.00601e+02	2.25600e+03	-0.05865	700.0
2257	7.00592e+02	2.25700e+03	-0.05865	700.0
2258	7.00584e+02	2.25800e+03	-0.0586498	700.0
2259	7.00591e+02	2.25900e+03	-0.058649	700.0
2260	7.00590e+02	2.26000e+03	-0.0586429	700.0
2261	7.00587e+02	2.26100e+03	-0.0586361	700.0
2262	7.00588e+02	2.26200e+03	-0.0586307	700.0
2263	7.00579e+02	2.26300e+03	-0.0586268	700.0
2264	7.00584e+02	2.26400e+03	-0.0586248	700.0
2265	7.00575e+02	2.26500e+03	-0.0586296	700.0
2266	7.00586e+02	2.26600e+03	-0.0586392	700.0
2267	7.00580e+02	2.26700e+03	-0.0586515	700.0
2268	7.00571e+02	2.26800e+03	-0.0586808	700.0
2269	7.00577e+02	2.26900e+03	-0.0587021	700.0
2270	7.00568e+02	2.27000e+03	-0.0587214	700.0
2271	7.00572e+02	2.27100e+03	-0.05874	700.0
2272	7.00573e+02	2.27200e+03	-0.0587545	700.0
2273	7.00582e+02	2.27300e+03	-0.0587655	700.0
2274	7.00580e+02	2.27400e+03	-0.0587731	700.0
2275	7.00584e+02	2.27500e+03	-0.0587787	700.0
2276	7.00582e+02	2.27600e+03	-0.0587698	700.0
2277	7.00578e+02	2.27700e+03	-0.0587643	700.0
2278	7.00579e+02	2.27800e+03	-0.0587569	700.0
2279	7.00583e+02	2.27900e+03	-0.0587476	700.0
2280	7.00577e+02	2.28000e+03	-0.0587281	700.0
2281	7.00574e+02	2.28100e+03	-0.0587111	700.0
2282	7.00573e+02	2.28200e+03	-0.0586938	700.0
2283	7.00578e+02	2.28300e+03	-0.0586753	700.0
2284	7.00576e+02	2.28400e+03	-0.0586489	700.0
2285	7.00580e+02	2.28500e+03	-0.0586264	700.0
2286	7.00586e+02	2.28600e+03	-0.0586079	700.0
2287	7.00581e+02	2.28700e+03	-0.0585924	700.0
2288	7.00580e+02	2.28800e+03	-0.058588	700.0
2289	7.00576e+02	2.28900e+03	-0.0585896	700.0
2290	7.00579e+02	2.29000e+03	-0.058598	700.0
2291	7.00585e+02	2.29100e+03	-0.058611	700.0
2292	7.00579e+02	2.29200e+03	-0.0586517	700.0
2293	7.00575e+02	2.29300e+03	-0.0586831	700.0
2294	7.00566e+02	2.29400e+03	-0.0587144	700.0
2295	7.00567e+02	2.29500e+03	-0.0587467	700.0
2296	7.00564e+02	2.29600e+03	-0.0587908	700.0
2297	7.00572e+02	2.29700e+03	-0.0588318	700.0
2298	7.00574e+02	2.29800e+03	-0.0588706	700.0
2299	7.00569e+02	2.29900e+03	-0.058908	700.0
2300	7.00567e+02	2.30000e+03	-0.058941	700.0
2301	7.00568e+02	2.30100e+03	-0.0589688	700.0
2302	7.00564e+02	2.30200e+03	-0.0589915	700.0
2303	7.00572e+02	2.30300e+03	-0.0590107	700.0
2304	7.00567e+02	2.30400e+03	-0.0590103	700.0
2305	7.00564e+02	2.30500e+03	-0.0590142	700.0
2306	7.00569e+02	2.30600e+03	-0.0590162	700.0
2307	7.00569e+02	2.30700e+03	-0.0590162	700.0
2308	7.00570e+02	2.30800e+03	-0.0590043	700.0
2309	7.00556e+02	2.30900e+03	-0.0589973	700.0
2310	7.00564e+02	2.31000e+03	-0.0589907	700.0
2311	7.00559e+02	2.31100e+03	-0.0589838	700.0
2312	7.00565e+02	2.31200e+03	-0.0589761	700.0
2313	7.00558e+02	2.31300e+03	-0.0589701	700.0
2314	7.00554e+02	2.31400e+03	-0.0589649	700.0
2315	7.00558e+02	2.31500e+03	-0.0589602	700.0
2316	7.00558e+02	2.31600e+03	-0.0589528	700.0
2317	7.00560e+02	2.31700e+03	-0.0589412	700.0
2318	7.00563e+02	2.31800e+03	-0.0589284	700.0
2319	7.00551e+02	2.31900e+03	-0.0589157	700.0
2320	7.00571e+02	2.32000e+03	-0.0588972	700.0
2321	7.00565e+02	2.32100e+03	-0.0588832	700.0
2322	7.00560e+02	2.32200e+03	-0.0588705	700.0
2323	7.00554e+02	2.32300e+03	-0.0588581	700.0
2324	7.00555e+02	2.32400e+03	-0.0588481	700.0
2325	7.00555e+02	2.32500e+03	-0.0588334	700.0
2326	7.00562e+02	2.32600e+03	-0.0588143	700.0
2327	7.00551e+02	2.32700e+03	-0.0587931	700.0
2328	7.00549e+02	2.32800e+03	-0.0587685	700.0
2329	7.00551e+02	2.32900e+03	-0.0587482	700.0
2330	7.00561e+02	2.33000e+03	-0.0587311	700.0
2331	7.00557e+02	2.33100e+03	-0.0587164	700.0
2332	7.00555e+02	2.33200e+03	-0.0587114	700.0
2333	7.00558e+02	2.33300e+03	-0.0587092	700.0
2334	7.00557e+02	2.33400e+03	-0.058711	700.0
2335	7.00546e+02	2.33500e+03	-0.0587155	700.0
2336	7.00552e+02	2.33600e+03	-0.0587385	700.0
2337	7.00552e+02	2.33700e+03	-0.0587585	700.0
2338	7.00554e+02	2.33800e+03	-0.0587823	700.0
2339	7.00556e+02	2.33900e+03	-0.0588081	700.0
2340	7.00551e+02	2.34000e+03	-0.0588416	700.0
2341	7.00549e+02	2.34100e+03	-0.0588697	700.0
2342	7.00548e+02	2.34200e+03	-0.0588959	700.0
2343	7.00548e+02	2.34300e+03	-0.0589211	700.0
2344	7.00542e+02	2.34400e+03	-0.0589426	700.0
2345	7.00545e+02	2.34500e+03	-0.0589631	700.0
2346	7.00548e+02	2.34600e+03	-0.0589817	700.0
2347	7.00550e+02	2.34700e+03	-0.058999	700.0
2348	7.00547e+02	2.34800e+03	-0.0590064	700.0
2349	7.00551e+02	2.34900e+03	-0.0590108	700.0
2350	7.00552e+02	2.35000e+03	-0.0590102	700.0
2351	7.00549e+02	2.35100e+03	-0.0590076	700.0
2352	7.00540e+02	2.35200e+03	-0.0589938	700.0
2353	7.00545e+02	2.35300e+03	-0.0589856	700.0
2354	7.00542e+02	2.35400e+03	-0.0589789	700.0
2355	7.00544e+02	2.35500e+03	-0.0589728	700.0
2356	7.00541e+02	2.35600e+03	-0.0589689	700.0
2357	7.00547e+02	2.35700e+03	-0.0589675	700.0
2358	7.00547e+02	2.35800e+03	-0.0589683	700.0
2359	7.00542e+02	2.35900e+03	-0.0589705	700.0
2360	7.00543e+02	2.36000e+03	-0.0589818	700.0
2361	7.00534e+02	2.36100e+03	-0.058991	700.0
2362	7.00541e+02	2.36200e+03	-0.0590012	700.0
2363	7.00532e+02	2.36300e+03	-0.0590128	700.0
2364	7.00534e+02	2.36400e+03	-0.0590316	700.0
2365	7.00542e+02	2.36500e+03	-0.05905	700.0
2366	7.00539e+02	2.36600e+03	-0.0590703	700.0
2367	7.00538e+02	2.36700e+03	-0.0590922	700.0
2368	7.00552e+02	2.36800e+03	-0.0591212	700.0
2369	7.00545e+02	2.36900e+03	-0.0591469	700.0
2370	7.00551e+02	2.37000e+03	-0.059171	700.0
2371	7.00539e+02	2.37100e+03	-0.0591941	700.0
2372	7.00547e+02	2.37200e+03	-0.0592111	700.0
2373	7.00541e+02	2.37300e+03	-0.0592233	700.0
2374	7.00546e+02	2.37400e+03	-0.0592306	700.0
2375	7.00547e+02	2.37500e+03	-0.0592345	700.0
2376	7.00552e+02	2.37600e+03	-0.0592175	700.0
2377	7.00547e+02	2.37700e+03	-0.0592045	700.0
2378	7.00537e+02	2.37800e+03	-0.0591892	700.0
2379	7.00544e+02	2.37900e+03	-0.0591714	700.0
2380	7.00542e+02	2.38000e+03	-0.0591412	700.0
2381	7.00537e+02	2.38100e+03	-0.0591177	700.0
2382	7.00538e+02	2.38200e+03	-0.0590964	700.0
2383	7.00540e+02	2.38300e+03	-0.059076	700.0
2384	7.00544e+02	2.38400e+03	-0.0590613	700.0
2385	7.00536e+02	2.38500e+03	-0.0590491	700.0
2386	7.00539e+02	2.38600e+03	-0.0590401	700.0
2387	7.00537e+02	2.38700e+03	-0.0590334	700.0
2388	7.00547e+02	2.38800e+03	-0.0590411	700.0
2389	7.00540e+02	2.38900e+03	-0.059046	700.0
2390	7.00528e+02	2.39000e+03	-0.0590532	700.0
2391	7.00537e+02	2.39100e+03	-0.0590624	700.0
2392	7.00538e+02	2.39200e+03	-0.0590829	700.0
2393	7.00539e+02	2.39300e+03	-0.0591005	700.0
2394	7.00529e+02	2.39400e+03	-0.0591179	700.0
2395	7.00532e+02	2.39500e+03	-0.0591354	700.0
2396	7.00537e+02	2.39600e+03	-0.0591494	700.0
2397	7.00537e+02	2.39700e+03	-0.0591548	700.0
2398	7.00528e+02	2.39800e+03	-0.0591554	700.0
2399	7.00530e+02	2.39900e+03	-0.0591539	700.0
2400	7.00535e+02	2.40000e+03	-0.0591362	700.0
2401	7.00534e+02	2.40100e+03	-0.0591272	700.0
2402	7.00517e+02	2.40200e+03	-0.0591193	700.0
2403	7.00533e+02	2.40300e+03	-0.0591095	700.0
2404	7.00533e+02	2.40400e+03	-0.0590969	700.0
2405	7.00533e+02	2.40500e+03	-0.0590862	700.0
2406	7.00529e+02	2.40600e+03	-0.059078	700.0
2407	7.00539e+02	2.40700e+03	-0.0590716	700.0
2408	7.00541e+02	2.40800e+03	-0.0590684	700.0
2409	7.00533e+02	2.40900e+03	-0.0590683	700.0
2410	7.00529e+02	2.41000e+03	-0.0590707	700.0
2411	7.00531e+02	2.41100e+03	-0.0590746	700.0
2412	7.00528e+02	2.41200e+03	-0.0590875	700.0
2413	7.00529e+02	2.41300e+03	-0.0590946	700.0
2414	7.00530e+02	2.41400e+03	-0.0590996	700.0
2415	7.00529e+02	2.41500e+03	-0.0591038	700.0
2416	7.00532e+02	2.41600e+03	-0.0591023	700.0
2417	7.00528e+02	2.41700e+03	-0.0591005	700.0
2418	7.00523e+02	2.41800e+03	-0.0590974	700.0
2419	7.00529e+02	2.41900e+03	-0.0590934	700.0
2420	7.00528e+02	2.42000e+03	-0.0590837	700.0
2421	7.00516e+02	2.42100e+03	-0.0590774	700.0
2422	7.00519e+02	2.42200e+03	-0.0590721	700.0
2423	7.00525e+02	2.42300e+03	-0.0590673	700.0
2424	7.00525e+02	2.42400e+03	-0.0590664	700.0
2425	7.00534e+02	2.42500e+03	-0.0590671	700.0
2426	7.00529e+02	2.42600e+03	-0.0590703	700.0
2427	7.00529e+02	2.42700e+03	-0.0590753	700.0
2428	7.00525e+02	2.42800e+03	-0.059091	700.0
2429	7.00526e+02	2.42900e+03	-0.0591054	700.0
2430	7.00527e+02	2.43000e+03	-0.0591196	700.0
2431	7.00518e+02	2.43100e+03	-0.0591324	700.0
2432	7.00520e+02	2.43200e+03	-0.0591475	700.0
2433	7.00520e+02	2.43300e+03	-0.0591584	700.0
2434	7.00526e+02	2.43400e+03	-0.0591674	700.0
2435	7.00529e+02	2.43500e+03	-0.0591755	700.0
2436	7.00529e+02	2.43600e+03	-0.0591716	700.0
2437	7.00520e+02	2.43700e+03	-0.0591703	700.0
2438	7.00528e+02	2.43800e+03	-0.0591676	700.0
2439	7.00520e+02	2.43900e+03	-0.0591636	700.0
2440	7.00525e+02	2.44000e+03	-0.0591526	700.0
2441	7.00528e+02	2.44100e+03	-0.0591442	700.0
2442	7.00525e+02	2.44200e+03	-0.0591367	700.0
2443	7.00521e+02	2.44300e+03	-0.0591294	700.0
2444	7.00516e+02	2.44400e+03	-0.0591239	700.0
2445	7.00523e+02	2.44500e+03	-0.0591211	700.0
2446	7.00518e+02	2.44600e+03	-0.0591202	700.0
2447	7.00525e+02	2.44700e+03	-0.0591202	700.0
2448	7.00524e+02	2.44800e+03	-0.0591274	700.0
2449	7.00517e+02	2.44900e+03	-0.0591311	700.0
2450	7.00513e+02	2.45000e+03	-0.0591343	700.0
2451	7.00517e+02	2.45100e+03	-0.0591375	700.0
2452	7.00519e+02	2.45200e+03	-0.0591404	700.0
2453	7.00521e+02	2.45300e+03	-0.0591428	700.0
2454	7.00520e+02	2.45400e+03	-0.0591449	700.0
2455	7.00511e+02	2.45500e+03	-0.0591467	700.0
2456	7.00515e+02	2.45600e+03	-0.0591471	700.0
2457	7.00509e+02	2.45700e+03	-0.0591477	700.0
2458	7.00514e+02	2.45800e+03	-0.0591461	700.0
2459	7.00516e+02	2.45900e+03	-0.0591416	700.0
2460	7.00512e+02	2.46000e+03	-0.0591295	700.0
2461	7.00512e+02	2.46100e+03	-0.0591184	700.0
2462	7.00510e+02	2.46200e+03	-0.0591076	700.0
2463	7.00514e+02	2.46300e+03	-0.059097	700.0
2464	7.00516e+02	2.46400e+03	-0.059082	700.0
2465	7.00507e+02	2.46500e+03	-0.0590739	700.0
2466	7.00507e+02	2.46600e+03	-0.0590692	700.0
2467	7.00509e+02	2.46700e+03	-0.0590665	700.0
2468	7.00511e+02	2.46800e+03	-0.0590761	700.0
2469	7.00506e+02	2.46900e+03	-0.0590823	700.0
2470	7.00509e+02	2.47000e+03	-0.059089	700.0
2471	7.00508e+02	2.47100e+03	-0.0590965	700.0
2472	7.00507e+02	2.47200e+03	-0.0591095	700.0
2473	7.00501e+02	2.47300e+03	-0.0591202	700.0
2474	7.00498e+02	2.47400e+03	-0.0591309	700.0
2475	7.00502e+02	2.47500e+03	-0.0591419	700.0
2476	7.00499e+02	2.47600e+03	-0.0591542	700.0
2477	7.00499e+02	2.47700e+03	-0.0591661	700.0
2478	7.00502e+02	2.47800e+03	-0.0591771	700.0
2479	7.00511e+02	2.47900e+03	-0.0591874	700.0
2480	7.00501e+02	2.48000e+03	-0.0591946	700.0
2481	7.00502e+02	2.48100e+03	-0.0591999	700.0
2482	7.00511e+02	2.48200e+03	-0.0592037	700.0
2483	7.00503e+02	2.48300e+03	-0.0592066	700.0
2484	7.00496e+02	2.48400e+03	-0.059203	700.0
2485	7.00502e+02	2.48500e+03	-0.0592031	700.0
2486	7.00495e+02	2.48600e+03	-0.0592041	700.0
2487	7.00491e+02	2.48700e+03	-0.0592054	700.0
2488	7.00500e+02	2.48800e+03	-0.059209	700.0
2489	7.00502e+02	2.48900e+03	-0.0592128	700.0
2490	7.00497e+02	2.49000e+03	-0.0592171	700.0
2491	7.00493e+02	2.49100e+03	-0.0592217	700.0
2492	7.00499e+02	2.49200e+03	-0.0592273	700.0
2493	7.00503e+02	2.49300e+03	-0.059228	700.0
2494	7.00500e+02	2.49400e+03	-0.0592238	700.0
2495	7.00494e+02	2.49500e+03	-0.0592174	700.0
2496	7.00504e+02	2.49600e+03	-0.0592045	700.0
2497	7.00496e+02	2.49700e+03	-0.0591948	700.0
2498	7.00493e+02	2.49800e+03	-0.0591862	700.0
2499	7.00499e+02	2.49900e+03	-0.0591783	700.0
2500	7.00500e+02	2.50000e+03	-0.0591719	700.0
2501	7.00494e+02	2.50100e+03	-0.0591687	700.0
2502	7.00496e+02	2.50200e+03	-0.059168	700.0
2503	7.00504e+02	2.50300e+03	-0.0591689	700.0
2504	7.00493e+02	2.50400e+03	-0.0591797	700.0
2505	7.00490e+02	2.50500e+03	-0.0591875	700.0
2506	7.00484e+02	2.50600e+03	-0.0591954	700.0
2507	7.00500e+02	2.50700e+03	-0.0592037	700.0
2508	7.00498e+02	2.50800e+03	-0.0592143	700.0
2509	7.00497e+02	2.50900e+03	-0.0592223	700.0
2510	7.00490e+02	2.51000e+03	-0.0592288	700.0
2511	7.00491e+02	2.51100e+03	-0.0592345	700.0
2512	7.00497e+02	2.51200e+03	-0.0592344	700.0
2513	7.00499e+02	2.51300e+03	-0.0592344	700.0
2514	7.00497e+02	2.51400e+03	-0.0592328	700.0
2515	7.00496e+02	2.51500e+03	-0.0592301	700.0
2516	7.00491e+02	2.51600e+03	-0.0592215	700.0
2517	7.00496e+02	2.51700e+03	-0.0592158	700.0
2518	7.00500e+02	2.51800e+03	-0.0592111	700.0
2519	7.00496e+02	2.51900e+03	-0.059207	700.0
2520	7.00496e+02	2.52000e+03	-0.0592057	700.0
2521	7.00496e+02	2.52100e+03	-0.0592062	700.0
2522	7.00504e+02	2.52200e+03	-0.0592071	700.0
2523	7.00505e+02	2.52300e+03	-0.059207	700.0
2524	7.00503e+02	2.52400e+03	-0.0592055	700.0
2525	7.00490e+02	2.52500e+03	-0.0592001	700.0
2526	7.00499e+02	2.52600e+03	-0.0591938	700.0
2527	7.00506e+02	2.52700e+03	-0.0591874	700.0
2528	7.00494e+02	2.52800e+03	-0.059173	700.0
2529	7.00500e+02	2.52900e+03	-0.0591648	700.0
2530	7.00490e+02	2.53000e+03	-0.0591602	700.0
2531	7.00492e+02	2.53100e+03	-0.059159	700.0
2532	7.00498e+02	2.53200e+03	-0.0591728	700.0
2533	7.00492e+02	2.53300e+03	-0.0591853	700.0
2534	7.00497e+02	2.53400e+03	-0.059199	700.0
2535	7.00500e+02	2.53500e+03	-0.0592137	700.0
2536	7.00495e+02	2.53600e+03	-0.0592412	700.0
2537	7.00496e+02	2.53700e+03	-0.0592608	700.0
2538	7.00499e+02	2.53800e+03	-0.059278	700.0
2539	7.00490e+02	2.53900e+03	-0.0592943	700.0
2540	7.00484e+02	2.54000e+03	-0.0593024	700.0
2541	7.00486e+02	2.54100e+03	-0.0593068	700.0
2542	7.00486e+02	2.54200e+03	-0.0593063	700.0
2543	7.00487e+02	2.54300e+03	-0.0593041	700.0
2544	7.00482e+02	2.54400e+03	-0.0592906	700.0
2545	7.00483e+02	2.54500e+03	-0.0592828	700.0
2546	7.00487e+02	2.54600e+03	-0.0592767	700.0
2547	7.00489e+02	2.54700e+03	-0.0592713	700.0
2548	7.00478e+02	2.54800e+03	-0.059268	700.0
2549	7.00483e+02	2.54900e+03	-0.0592662	700.0
2550	7.00495e+02	2.55000e+03	-0.0592651	700.0
2551	7.00486e+02	2.55100e+03	-0.059264	700.0
2552	7.00475e+02	2.55200e+03	-0.0592658	700.0
2553	7.00489e+02	2.55300e+03	-0.0592631	700.0
2554	7.00488e+02	2.55400e+03	-0.0592574	700.0
2555	7.00486e+02	2.55500e+03	-0.0592499	700.0
2556	7.00482e+02	2.55600e+03	-0.0592332	700.0
2557	7.00478e+02	2.55700e+03	-0.0592187	700.0
2558	7.00489e+02	2.55800e+03	-0.0592042	700.0
2559	7.00477e+02	2.55900e+03	-0.0591896	700.0
2560	7.00473e+02	2.56000e+03	-0.0591736	700.0
2561	7.00471e+02	2.56100e+03	-0.0591623	700.0
2562	7.00484e+02	2.56200e+03	-0.059154	700.0
2563	7.00483e+02	2.56300e+03	-0.0591474	700.0
2564	7.00479e+02	2.56400e+03	-0.0591529	700.0
2565	7.00482e+02	2.56500e+03	-0.0591576	700.0
2566	7.00481e+02	2.56600e+03	-0.0591654	700.0
2567	7.00473e+02	2.56700e+03	-0.059176	700.0
2568	7.00473e+02	2.56800e+03	-0.0592011	700.0
2569	7.00476e+02	2.56900e+03	-0.0592238	700.0
2570	7.00469e+02	2.57000e+03	-0.0592476	700.0
2571	7.00476e+02	2.57100e+03	-0.0592726	700.0
2572	7.00470e+02	2.57200e+03	-0.059305	700.0
2573	7.00480e+02	2.57300e+03	-0.0593315	700.0
2574	7.00474e+02	2.57400e+03	-0.0593552	700.0
2575	7.00470e+02	2.57500e+03	-0.0593766	700.0
2576	7.00470e+02	2.57600e+03	-0.0593848	700.0
2577	7.00468e+02	2.57700e+03	-0.0593929	700.0
2578	7.00464e+02	2.57800e+03	-0.0593994	700.0
2579	7.00473e+02	2.57900e+03	-0.0594045	700.0
2580	7.00474e+02	2.58000e+03	-0.0593961	700.0
2581	7.00472e+02	2.58100e+03	-0.0593941	700.0
2582	7.00466e+02	2.58200e+03	-0.0593923	700.0
2583	7.00470e+02	2.58300e+03	-0.0593896	700.0
2584	7.00474e+02	2.58400e+03	-0.0593831	700.0
2585	7.00467e+02	2.58500e+03	-0.0593741	700.0
2586	7.00469e+02	2.58600e+03	-0.0593624	700.0
2587	7.00467e+02	2.58700e+03	-0.059349	700.0
2588	7.00471e+02	2.58800e+03	-0.0593255	700.0
2589	7.00465e+02	2.58900e+03	-0.0593057	700.0
2590	7.00469e+02	2.59000e+03	-0.0592869	700.0
2591	7.00469e+02	2.59100e+03	-0.0592687	700.0
2592	7.00459e+02	2.59200e+03	-0.0592522	700.0
2593	7.00469e+02	2.59300e+03	-0.0592397	700.0
2594	7.00462e+02	2.59400e+03	-0.0592301	700.0
2595	7.00453e+02	2.59500e+03	-0.0592224	700.0
2596	7.00474e+02	2.59600e+03	-0.0592265	700.0
2597	7.00463e+02	2.59700e+03	-0.0592269	700.0
2598	7.00465e+02	2.59800e+03	-0.059228	700.0
2599	7.00466e+02	2.59900e+03	-0.05923	700.0
2600	7.00462e+02	2.60000e+03	-0.0592377	700.0
2601	7.00462e+02	2.60100e+03	-0.059244	700.0
2602	7.00465e+02	2.60200e+03	-0.0592509	700.0
2603	7.00463e+02	2.60300e+03	-0.0592585	700.0
2604	7.00462e+02	2.60400e+03	-0.0592698	700.0
2605	7.00464e+02	2.60500e+03	-0.0592802	700.0
2606	7.00468e+02	2.60600e+03	-0.0592905	700.0
2607	7.00462e+02	2.60700e+03	-0.0593009	700.0
2608	7.00466e+02	2.60800e+03	-0.0593114	700.0
2609	7.00463e+02	2.60900e+03	-0.0593201	700.0
2610	7.00457e+02	2.61000e+03	-0.0593276	700.0
2611	7.00470e+02	2.61100e+03	-0.0593344	700.0
2612	7.00465e+02	2.61200e+03	-0.0593357	700.0
2613	7.00465e+02	2.61300e+03	-0.0593372	700.0
2614	7.00463e+02	2.61400e+03	-0.0593371	700.0
2615	7.00466e+02	2.61500e+03	-0.0593357	700.0
2616	7.00461e+02	2.61600e+03	-0.0593276	700.0
2617	7.00456e+02	2.61700e+03	-0.0593212	700.0
2618	7.00455e+02	2.61800e+03	-0.0593153	700.0
2619	7.00453e+02	2.61900e+03	-0.0593095	700.0
2620	7.00458e+02	2.62000e+03	-0.0593036	700.0
2621	7.00454e+02	2.62100e+03	-0.0593009	700.0
2622	7.00454e+02	2.62200e+03	-0.0593002	700.0
2623	7.00456e+02	2.62300e+03	-0.0593008	700.0
2624	7.00456e+02	2.62400e+03	-0.0593102	700.0
2625	7.00449e+02	2.62500e+03	-0.0593183	700.0
2626	7.00452e+02	2.62600e+03	-0.0593283	700.0
2627	7.00455e+02	2.62700e+03	-0.05934	700.0
2628	7.00461e+02	2.62800e+03	-0.0593596	700.0
2629	7.00457e+02	2.62900e+03	-0.0593768	700.0
2630	7.00459e+02	2.63000e+03	-0.0593935	700.0
2631	7.00455e+02	2.63100e+03	-0.0594099	700.0
2632	7.00458e+02	2.63200e+03	-0.0594261	700.0
2633	7.00453e+02	2.63300e+03	-0.0594386	700.0
2634	7.00450e+02	2.63400e+03	-0.0594486	700.0
2635	7.00453e+02	2.63500e+03	-0.0594571	700.0
2636	7.00454e+02	2.63600e+03	-0.0594556	700.0
2637	7.00454e+02	2.63700e+03	-0.0594559	700.0
2638	7.00453e+02	2.63800e+03	-0.0594541	700.0
2639	7.00456e+02	2.63900e+03	-0.0594503	700.0
2640	7.00459e+02	2.64000e+03	-0.0594365	700.0
2641	7.00453e+02	2.64100e+03	-0.0594238	700.0
2642	7.00456e+02	2.64200e+03	-0.0594096	700.0
2643	7.00456e+02	2.64300e+03	-0.0593941	700.0
2644	7.00451e+02	2.64400e+03	-0.0593718	700.0
2645	7.00454e+02	2.64500e+03	-0.0593545	700.0
2646	7.00460e+02	2.64600e+03	-0.0593396	700.0
2647	7.00454e+02	2.64700e+03	-0.0593262	700.0
2648	7.00446e+02	2.64800e+03	-0.0593215	700.0
2649	7.00450e+02	2.64900e+03	-0.0593189	700.0
2650	7.00457e+02	2.65000e+03	-0.0593196	700.0
2651	7.00445e+02	2.65100e+03	-0.0593228	700.0
2652	7.00450e+02	2.65200e+03	-0.0593402	700.0
2653	7.00454e+02	2.65300e+03	-0.0593519	700.0
2654	7.00447e+02	2.65400e+03	-0.0593625	700.0
2655	7.00447e+02	2.65500e+03	-0.0593728	700.0
2656	7.00452e+02	2.65600e+03	-0.0593822	700.0
2657	7.00455e+02	2.65700e+03	-0.0593881	700.0
2658	7.00443e+02	2.65800e+03	-0.0593921	700.0
2659	7.00441e+02	2.65900e+03	-0.0593951	700.0
2660	7.00451e+02	2.66000e+03	-0.0593907	700.0
2661	7.00449e+02	2.66100e+03	-0.0593897	700.0
2662	7.00448e+02	2.66200e+03	-0.0593884	700.0
2663	7.00447e+02	2.66300e+03	-0.0593863	700.0
2664	7.00442e+02	2.66400e+03	-0.0593816	700.0
2665	7.00449e+02	2.66500e+03	-0.0593759	700.0
2666	7.00443e+02	2.66600e+03	-0.0593688	700.0
2667	7.00444e+02	2.66700e+03	-0.0593607	700.0
2668	7.00448e+02	2.66800e+03	-0.0593465	700.0
2669	7.00447e+02	2.66900e+03	-0.059334	700.0
2670	7.00451e+02	2.67000e+03	-0.0593217	700.0
2671	7.00441e+02	2.67100e+03	-0.0593093	700.0
2672	7.00451e+02	2.67200e+03	-0.0592972	700.0
2673	7.00448e+02	2.67300e+03	-0.0592886	700.0
2674	7.00440e+02	2.67400e+03	-0.0592831	700.0
2675	7.00448e+02	2.67500e+03	-0.0592799	700.0
2676	7.00459e+02	2.67600e+03	-0.0592884	700.0
2677	7.00459e+02	2.67700e+03	-0.0592963	700.0
2678	7.00458e+02	2.67800e+03	-0.0593063	700.0
2679	7.00453e+02	2.67900e+03	-0.059318	700.0
2680	7.00446e+02	2.68000e+03	-0.0593402	700.0
2681	7.00451e+02	2.68100e+03	-0.0593571	700.0
2682	7.00448e+02	2.68200e+03	-0.0593729	700.0
2683	7.00440e+02	2.68300e+03	-0.0593884	700.0
2684	7.00444e+02	2.68400e+03	-0.0594014	700.0
2685	7.00440e+02	2.68500e+03	-0.0594129	700.0
2686	7.00448e+02	2.68600e+03	-0.059423	700.0
2687	7.00448e+02	2.68700e+03	-0.059432	700.0
2688	7.00453e+02	2.68800e+03	-0.0594345	700.0
2689	7.00452e+02	2.68900e+03	-0.0594388	700.0
2690	7.00451e+02	2.69000e+03	-0.0594427	700.0
2691	7.00451e+02	2.69100e+03	-0.059446	700.0
2692	7.00449e+02	2.69200e+03	-0.059446	700.0
2693	7.00450e+02	2.69300e+03	-0.0594472	700.0
2694	7.00445e+02	2.69400e+03	-0.0594481	700.0
2695	7.00443e+02	2.69500e+03	-0.0594485	700.0
2696	7.00448e+02	2.69600e+03	-0.0594462	700.0
2697	7.00441e+02	2.69700e+03	-0.0594434	700.0
2698	7.00441e+02	2.69800e+03	-0.0594394	700.0
2699	7.00430e+02	2.69900e+03	-0.0594345	700.0
2700	7.00450e+02	2.70000e+03	-0.0594245	700.0
2701	7.00439e+02	2.70100e+03	-0.0594157	700.0
2702	7.00439e+02	2.70200e+03	-0.0594067	700.0
2703	7.00444e+02	2.70300e+03	-0.0593976	700.0
2704	7.00441e+02	2.70400e+03	-0.0593872	700.0
2705	7.00437e+02	2.70500e+03	-0.059379	700.0
2706	7.00437e+02	2.70600e+03	-0.0593721	700.0
2707	7.00439e+02	2.70700e+03	-0.0593663	700.0
2708	7.00432e+02	2.70800e+03	-0.0593659	700.0
2709	7.00426e+02	2.70900e+03	-0.0593656	700.0
2710	7.00432e+02	2.71000e+03	-0.0593669	700.0
2711	7.00430e+02	2.71100e+03	-0.05937	700.0
2712	7.00434e+02	2.71200e+03	-0.0593751	700.0
2713	7.00437e+02	2.71300e+03	-0.0593822	700.0
2714	7.00425e+02	2.71400e+03	-0.0593908	700.0
2715	7.00421e+02	2.71500e+03	-0.0594005	700.0
2716	7.00429e+02	2.71600e+03	-0.0594103	700.0
2717	7.00435e+02	2.71700e+03	-0.0594193	700.0
2718	7.00437e+02	2.71800e+03	-0.0594273	700.0
2719	7.00435e+02	2.71900e+03	-0.059434	700.0
2720	7.00434e+02	2.72000e+03	-0.05944	700.0
