Index	Ts	t	Weight	Tr
[#]	[°C]	[s]	[mg]	[°C]
682	1.30241e+02	6.82000e+02	2.96644	131.0
683	1.30751e+02	6.83000e+02	2.96642	131.5
684	1.31242e+02	6.84000e+02	2.96638	132.0
685	1.31748e+02	6.85000e+02	2.96634	132.5
686	1.32237e+02	6.86000e+02	2.96632	133.0
687	1.32733e+02	6.87000e+02	2.96629	133.5
688	1.33246e+02	6.88000e+02	2.96628	134.0
689	1.33754e+02	6.89000e+02	2.96628	134.5
690	1.34244e+02	6.90000e+02	2.96628	135.0
691	1.34752e+02	6.91000e+02	2.96628	135.5
692	1.35245e+02	6.92000e+02	2.96631	136.0
693	1.35749e+02	6.93000e+02	2.96632	136.5
694	1.36248e+02	6.94000e+02	2.96634	137.0
695	1.36747e+02	6.95000e+02	2.96635	137.5
696	1.37249e+02	6.96000e+02	2.96636	138.0
697	1.37754e+02	6.97000e+02	2.96636	138.5
698	1.38266e+02	6.98000e+02	2.96636	139.0
699	1.38756e+02	6.99000e+02	2.96635	139.5
700	1.39263e+02	7.00000e+02	2.96632	140.0
701	1.39778e+02	7.01000e+02	2.96629	140.5
702	1.40264e+02	7.02000e+02	2.96626	141.0
703	1.40772e+02	7.03000e+02	2.96622	141.5
704	1.41276e+02	7.04000e+02	2.96617	142.0
705	1.41788e+02	7.05000e+02	2.96613	142.5
706	1.42288e+02	7.06000e+02	2.96608	143.0
707	1.42784e+02	7.07000e+02	2.96604	143.5
708	1.43284e+02	7.08000e+02	2.966	144.0
709	1.43782e+02	7.09000e+02	2.96596	144.5
710	1.44283e+02	7.10000e+02	2.96593	145.0
711	1.44790e+02	7.11000e+02	2.96589	145.5
712	1.45296e+02	7.12000e+02	2.96586	146.0
713	1.45786e+02	7.13000e+02	2.96583	146.5
714	1.46306e+02	7.14000e+02	2.9658	147.0
715	1.46805e+02	7.15000e+02	2.96577	147.5
716	1.47304e+02	7.16000e+02	2.96574	148.0
717	1.47802e+02	7.17000e+02	2.96571	148.5
718	1.48314e+02	7.18000e+02	2.96568	149.0
719	1.48803e+02	7.19000e+02	2.96566	149.5
720	1.49319e+02	7.20000e+02	2.96563	150.0
721	1.49826e+02	7.21000e+02	2.96562	150.5
722	1.50319e+02	7.22000e+02	2.96561	151.0
723	1.50820e+02	7.23000e+02	2.96561	151.5
724	1.51325e+02	7.24000e+02	2.96562	152.0
725	1.51834e+02	7.25000e+02	2.96561	152.5
726	1.52328e+02	7.26000e+02	2.96559	153.0
727	1.52828e+02	7.27000e+02	2.96557	153.5
728	1.53338e+02	7.28000e+02	2.96552	154.0
729	1.53849e+02	7.29000e+02	2.96548	154.5
730	1.54355e+02	7.30000e+02	2.96544	155.0
731	1.54852e+02	7.31000e+02	2.9654	155.5
732	1.55360e+02	7.32000e+02	2.96534	156.0
733	1.55865e+02	7.33000e+02	2.96529	156.5
734	1.56369e+02	7.34000e+02	2.96523	157.0
735	1.56873e+02	7.35000e+02	2.96517	157.5
736	1.57371e+02	7.36000e+02	2.96511	158.0
737	1.57879e+02	7.37000e+02	2.96506	158.5
738	1.58375e+02	7.38000e+02	2.96502	159.0
739	1.58891e+02	7.39000e+02	2.96497	159.5
740	1.59392e+02	7.40000e+02	2.96494	160.0
741	1.59893e+02	7.41000e+02	2.96489	160.5
742	1.60389e+02	7.42000e+02	2.96485	161.0
743	1.60901e+02	7.43000e+02	2.96481	161.5
744	1.61412e+02	7.44000e+02	2.96477	162.0
745	1.61907e+02	7.45000e+02	2.96474	162.5
746	1.62414e+02	7.46000e+02	2.96471	163.0
747	1.62921e+02	7.47000e+02	2.96469	163.5
748	1.63425e+02	7.48000e+02	2.96468	164.0
749	1.63927e+02	7.49000e+02	2.96466	164.5
750	1.64431e+02	7.50000e+02	2.96463	165.0
751	1.64935e+02	7.51000e+02	2.9646	165.5
752	1.65443e+02	7.52000e+02	2.96456	166.0
753	1.65950e+02	7.53000e+02	2.96452	166.5
754	1.66450e+02	7.54000e+02	2.96449	167.0
755	1.66956e+02	7.55000e+02	2.96445	167.5
756	1.67466e+02	7.56000e+02	2.96441	168.0
757	1.67972e+02	7.57000e+02	2.96436	168.5
758	1.68475e+02	7.58000e+02	2.9643	169.0
759	1.68977e+02	7.59000e+02	2.96423	169.5
760	1.69491e+02	7.60000e+02	2.96413	170.0
761	1.69988e+02	7.61000e+02	2.96404	170.5
762	1.70498e+02	7.62000e+02	2.96396	171.0
763	1.70995e+02	7.63000e+02	2.96388	171.5
764	1.71507e+02	7.64000e+02	2.9638	172.0
765	1.72016e+02	7.65000e+02	2.96373	172.5
766	1.72514e+02	7.66000e+02	2.96367	173.0
767	1.73006e+02	7.67000e+02	2.96362	173.5
768	1.73516e+02	7.68000e+02	2.9636	174.0
769	1.74011e+02	7.69000e+02	2.96357	174.5
770	1.74528e+02	7.70000e+02	2.96354	175.0
771	1.75030e+02	7.71000e+02	2.96351	175.5
772	1.75537e+02	7.72000e+02	2.96349	176.0
773	1.76048e+02	7.73000e+02	2.96345	176.5
774	1.76553e+02	7.74000e+02	2.96341	177.0
775	1.77060e+02	7.75000e+02	2.96335	177.5
776	1.77565e+02	7.76000e+02	2.96327	178.0
777	1.78069e+02	7.77000e+02	2.96319	178.5
778	1.78582e+02	7.78000e+02	2.96311	179.0
779	1.79083e+02	7.79000e+02	2.96302	179.5
780	1.79590e+02	7.80000e+02	2.96292	180.0
781	1.80094e+02	7.81000e+02	2.96282	180.5
782	1.80601e+02	7.82000e+02	2.96273	181.0
783	1.81121e+02	7.83000e+02	2.96263	181.5
784	1.81629e+02	7.84000e+02	2.96253	182.0
785	1.82127e+02	7.85000e+02	2.96243	182.5
786	1.82642e+02	7.86000e+02	2.96232	183.0
787	1.83152e+02	7.87000e+02	2.96221	183.5
788	1.83642e+02	7.88000e+02	2.9621	184.0
789	1.84151e+02	7.89000e+02	2.96199	184.5
790	1.84669e+02	7.90000e+02	2.96189	185.0
791	1.85170e+02	7.91000e+02	2.96177	185.5
792	1.85668e+02	7.92000e+02	2.96166	186.0
793	1.86166e+02	7.93000e+02	2.96154	186.5
794	1.86691e+02	7.94000e+02	2.96141	187.0
795	1.87196e+02	7.95000e+02	2.96128	187.5
796	1.87714e+02	7.96000e+02	2.96114	188.0
797	1.88210e+02	7.97000e+02	2.961	188.5
798	1.88720e+02	7.98000e+02	2.96086	189.0
799	1.89222e+02	7.99000e+02	2.96071	189.5
800	1.89729e+02	8.00000e+02	2.96055	190.0
801	1.90247e+02	8.01000e+02	2.96038	190.5
802	1.90750e+02	8.02000e+02	2.96021	191.0
803	1.91261e+02	8.03000e+02	2.96005	191.5
804	1.91762e+02	8.04000e+02	2.95986	192.0
805	1.92271e+02	8.05000e+02	2.95969	192.5
806	1.92777e+02	8.06000e+02	2.95952	193.0
807	1.93286e+02	8.07000e+02	2.95934	193.5
808	1.93785e+02	8.08000e+02	2.95917	194.0
809	1.94282e+02	8.09000e+02	2.95899	194.5
810	1.94795e+02	8.10000e+02	2.95879	195.0
811	1.95302e+02	8.11000e+02	2.95859	195.5
812	1.95822e+02	8.12000e+02	2.95835	196.0
813	1.96328e+02	8.13000e+02	2.95813	196.5
814	1.96828e+02	8.14000e+02	2.95791	197.0
815	1.97334e+02	8.15000e+02	2.95768	197.5
816	1.97843e+02	8.16000e+02	2.95743	198.0
817	1.98352e+02	8.17000e+02	2.95718	198.5
818	1.98851e+02	8.18000e+02	2.95694	199.0
819	1.99366e+02	8.19000e+02	2.95669	199.5
820	1.99874e+02	8.20000e+02	2.95644	200.0
821	2.00384e+02	8.21000e+02	2.95619	200.5
822	2.00885e+02	8.22000e+02	2.95593	201.0
823	2.01406e+02	8.23000e+02	2.95568	201.5
824	2.01918e+02	8.24000e+02	2.95541	202.0
825	2.02409e+02	8.25000e+02	2.95512	202.5
826	2.02927e+02	8.26000e+02	2.95482	203.0
827	2.03430e+02	8.27000e+02	2.95451	203.5
828	2.03936e+02	8.28000e+02	2.95416	204.0
829	2.04441e+02	8.29000e+02	2.95383	204.5
830	2.04961e+02	8.30000e+02	2.95351	205.0
831	2.05470e+02	8.31000e+02	2.95318	205.5
832	2.05974e+02	8.32000e+02	2.95285	206.0
833	2.06468e+02	8.33000e+02	2.95252	206.5
834	2.06978e+02	8.34000e+02	2.95218	207.0
835	2.07492e+02	8.35000e+02	2.95185	207.5
836	2.07994e+02	8.36000e+02	2.95151	208.0
837	2.08499e+02	8.37000e+02	2.95117	208.5
838	2.09011e+02	8.38000e+02	2.95083	209.0
839	2.09511e+02	8.39000e+02	2.95049	209.5
840	2.10026e+02	8.40000e+02	2.95013	210.0
841	2.10537e+02	8.41000e+02	2.94979	210.5
842	2.11051e+02	8.42000e+02	2.94944	211.0
843	2.11561e+02	8.43000e+02	2.9491	211.5
844	2.12054e+02	8.44000e+02	2.94876	212.0
845	2.12565e+02	8.45000e+02	2.94843	212.5
846	2.13075e+02	8.46000e+02	2.9481	213.0
847	2.13567e+02	8.47000e+02	2.94778	213.5
848	2.14077e+02	8.48000e+02	2.94747	214.0
849	2.14583e+02	8.49000e+02	2.94714	214.5
850	2.15080e+02	8.50000e+02	2.94682	215.0
851	2.15581e+02	8.51000e+02	2.94648	215.5
852	2.16086e+02	8.52000e+02	2.94614	216.0
853	2.16585e+02	8.53000e+02	2.94579	216.5
854	2.17093e+02	8.54000e+02	2.94544	217.0
855	2.17593e+02	8.55000e+02	2.94509	217.5
856	2.18097e+02	8.56000e+02	2.94472	218.0
857	2.18601e+02	8.57000e+02	2.94437	218.5
858	2.19121e+02	8.58000e+02	2.94401	219.0
859	2.19619e+02	8.59000e+02	2.94366	219.5
860	2.20128e+02	8.60000e+02	2.94331	220.0
861	2.20632e+02	8.61000e+02	2.94295	220.5
862	2.21142e+02	8.62000e+02	2.9426	221.0
863	2.21641e+02	8.63000e+02	2.94225	221.5
864	2.22152e+02	8.64000e+02	2.9419	222.0
865	2.22653e+02	8.65000e+02	2.94154	222.5
866	2.23159e+02	8.66000e+02	2.94118	223.0
867	2.23659e+02	8.67000e+02	2.94082	223.5
868	2.24168e+02	8.68000e+02	2.94044	224.0
869	2.24685e+02	8.69000e+02	2.94007	224.5
870	2.25186e+02	8.70000e+02	2.9397	225.0
871	2.25684e+02	8.71000e+02	2.93933	225.5
872	2.26186e+02	8.72000e+02	2.93895	226.0
873	2.26693e+02	8.73000e+02	2.93858	226.5
874	2.27200e+02	8.74000e+02	2.93822	227.0
875	2.27696e+02	8.75000e+02	2.93786	227.5
876	2.28210e+02	8.76000e+02	2.93751	228.0
877	2.28719e+02	8.77000e+02	2.93715	228.5
878	2.29225e+02	8.78000e+02	2.93679	229.0
879	2.29733e+02	8.79000e+02	2.93643	229.5
880	2.30232e+02	8.80000e+02	2.93608	230.0
881	2.30738e+02	8.81000e+02	2.93573	230.5
882	2.31249e+02	8.82000e+02	2.93537	231.0
883	2.31749e+02	8.83000e+02	2.93502	231.5
884	2.32276e+02	8.84000e+02	2.93465	232.0
885	2.32782e+02	8.85000e+02	2.93429	232.5
886	2.33284e+02	8.86000e+02	2.93392	233.0
887	2.33783e+02	8.87000e+02	2.93355	233.5
888	2.34304e+02	8.88000e+02	2.93316	234.0
889	2.34805e+02	8.89000e+02	2.93278	234.5
890	2.35320e+02	8.90000e+02	2.93239	235.0
891	2.35820e+02	8.91000e+02	2.932	235.5
892	2.36336e+02	8.92000e+02	2.93159	236.0
893	2.36837e+02	8.93000e+02	2.93119	236.5
894	2.37351e+02	8.94000e+02	2.93078	237.0
895	2.37849e+02	8.95000e+02	2.93037	237.5
896	2.38357e+02	8.96000e+02	2.92996	238.0
897	2.38858e+02	8.97000e+02	2.92956	238.5
898	2.39369e+02	8.98000e+02	2.92917	239.0
899	2.39874e+02	8.99000e+02	2.92878	239.5
900	2.40392e+02	9.00000e+02	2.92841	240.0
901	2.40894e+02	9.01000e+02	2.92803	240.5
902	2.41400e+02	9.02000e+02	2.92764	241.0
903	2.41898e+02	9.03000e+02	2.92724	241.5
904	2.42401e+02	9.04000e+02	2.92683	242.0
905	2.42913e+02	9.05000e+02	2.92644	242.5
906	2.43413e+02	9.06000e+02	2.92605	243.0
907	2.43916e+02	9.07000e+02	2.92566	243.5
908	2.44414e+02	9.08000e+02	2.92528	244.0
909	2.44924e+02	9.09000e+02	2.92489	244.5
910	2.45426e+02	9.10000e+02	2.9245	245.0
911	2.45925e+02	9.11000e+02	2.92411	245.5
912	2.46442e+02	9.12000e+02	2.92372	246.0
913	2.46948e+02	9.13000e+02	2.92333	246.5
914	2.47446e+02	9.14000e+02	2.92294	247.0
915	2.47954e+02	9.15000e+02	2.92255	247.5
916	2.48458e+02	9.16000e+02	2.92216	248.0
917	2.48966e+02	9.17000e+02	2.92177	248.5
918	2.49469e+02	9.18000e+02	2.92138	249.0
919	2.49975e+02	9.19000e+02	2.92099	249.5
920	2.50479e+02	9.20000e+02	2.92061	250.0
921	2.50979e+02	9.21000e+02	2.92023	250.5
922	2.51487e+02	9.22000e+02	2.91986	251.0
923	2.51989e+02	9.23000e+02	2.91948	251.5
924	2.52502e+02	9.24000e+02	2.91909	252.0
925	2.52994e+02	9.25000e+02	2.91869	252.5
926	2.53512e+02	9.26000e+02	2.91827	253.0
927	2.54013e+02	9.27000e+02	2.91785	253.5
928	2.54519e+02	9.28000e+02	2.91738	254.0
929	2.55025e+02	9.29000e+02	2.91693	254.5
930	2.55530e+02	9.30000e+02	2.91648	255.0
931	2.56046e+02	9.31000e+02	2.91604	255.5
932	2.56560e+02	9.32000e+02	2.91557	256.0
933	2.57062e+02	9.33000e+02	2.91512	256.5
934	2.57573e+02	9.34000e+02	2.91466	257.0
935	2.58086e+02	9.35000e+02	2.9142	257.5
936	2.58599e+02	9.36000e+02	2.91374	258.0
937	2.59095e+02	9.37000e+02	2.91328	258.5
938	2.59596e+02	9.38000e+02	2.91282	259.0
939	2.60106e+02	9.39000e+02	2.91235	259.5
940	2.60614e+02	9.40000e+02	2.91188	260.0
941	2.61111e+02	9.41000e+02	2.91141	260.5
942	2.61631e+02	9.42000e+02	2.91093	261.0
943	2.62126e+02	9.43000e+02	2.91045	261.5
944	2.62646e+02	9.44000e+02	2.90995	262.0
945	2.63147e+02	9.45000e+02	2.90946	262.5
946	2.63656e+02	9.46000e+02	2.90897	263.0
947	2.64161e+02	9.47000e+02	2.90848	263.5
948	2.64657e+02	9.48000e+02	2.90799	264.0
949	2.65161e+02	9.49000e+02	2.90751	264.5
950	2.65663e+02	9.50000e+02	2.90703	265.0
951	2.66171e+02	9.51000e+02	2.90655	265.5
952	2.66665e+02	9.52000e+02	2.9061	266.0
953	2.67178e+02	9.53000e+02	2.90564	266.5
954	2.67688e+02	9.54000e+02	2.90518	267.0
955	2.68192e+02	9.55000e+02	2.90473	267.5
956	2.68702e+02	9.56000e+02	2.9043	268.0
957	2.69218e+02	9.57000e+02	2.90386	268.5
958	2.69717e+02	9.58000e+02	2.90343	269.0
959	2.70226e+02	9.59000e+02	2.90299	269.5
960	2.70731e+02	9.60000e+02	2.90256	270.0
961	2.71247e+02	9.61000e+02	2.90211	270.5
962	2.71729e+02	9.62000e+02	2.90166	271.0
963	2.72253e+02	9.63000e+02	2.9012	271.5
964	2.72761e+02	9.64000e+02	2.90071	272.0
965	2.73273e+02	9.65000e+02	2.90023	272.5
966	2.73786e+02	9.66000e+02	2.89974	273.0
967	2.74307e+02	9.67000e+02	2.89925	273.5
968	2.74813e+02	9.68000e+02	2.89874	274.0
969	2.75337e+02	9.69000e+02	2.89823	274.5
970	2.75834e+02	9.70000e+02	2.89772	275.0
971	2.76351e+02	9.71000e+02	2.8972	275.5
972	2.76860e+02	9.72000e+02	2.89665	276.0
973	2.77367e+02	9.73000e+02	2.89611	276.5
974	2.77882e+02	9.74000e+02	2.89556	277.0
975	2.78377e+02	9.75000e+02	2.89499	277.5
976	2.78888e+02	9.76000e+02	2.89436	278.0
977	2.79401e+02	9.77000e+02	2.89372	278.5
978	2.79892e+02	9.78000e+02	2.89306	279.0
979	2.80401e+02	9.79000e+02	2.89238	279.5
980	2.80898e+02	9.80000e+02	2.89163	280.0
981	2.81419e+02	9.81000e+02	2.89092	280.5
982	2.81925e+02	9.82000e+02	2.89021	281.0
983	2.82421e+02	9.83000e+02	2.88951	281.5
984	2.82937e+02	9.84000e+02	2.88881	282.0
985	2.83438e+02	9.85000e+02	2.88811	282.5
986	2.83931e+02	9.86000e+02	2.88741	283.0
987	2.84431e+02	9.87000e+02	2.88671	283.5
988	2.84928e+02	9.88000e+02	2.88601	284.0
989	2.85428e+02	9.89000e+02	2.88531	284.5
990	2.85926e+02	9.90000e+02	2.88459	285.0
991	2.86424e+02	9.91000e+02	2.88388	285.5
992	2.86935e+02	9.92000e+02	2.88314	286.0
993	2.87444e+02	9.93000e+02	2.88241	286.5
994	2.87942e+02	9.94000e+02	2.88167	287.0
995	2.88443e+02	9.95000e+02	2.88093	287.5
996	2.88949e+02	9.96000e+02	2.88018	288.0
997	2.89464e+02	9.97000e+02	2.87944	288.5
998	2.89970e+02	9.98000e+02	2.87871	289.0
999	2.90468e+02	9.99000e+02	2.87798	289.5
1000	2.90975e+02	1.00000e+03	2.87726	290.0
1001	2.91493e+02	1.00100e+03	2.87655	290.5
1002	2.92013e+02	1.00200e+03	2.87582	291.0
1003	2.92546e+02	1.00300e+03	2.87509	291.5
1004	2.93075e+02	1.00400e+03	2.87436	292.0
1005	2.93570e+02	1.00500e+03	2.87361	292.5
1006	2.94091e+02	1.00600e+03	2.87284	293.0
1007	2.94604e+02	1.00700e+03	2.87207	293.5
1008	2.95139e+02	1.00800e+03	2.87124	294.0
1009	2.95631e+02	1.00900e+03	2.87042	294.5
1010	2.96171e+02	1.01000e+03	2.86959	295.0
1011	2.96707e+02	1.01100e+03	2.86876	295.5
1012	2.97221e+02	1.01200e+03	2.86788	296.0
1013	2.97743e+02	1.01300e+03	2.86701	296.5
1014	2.98251e+02	1.01400e+03	2.86613	297.0
1015	2.98789e+02	1.01500e+03	2.86525	297.5
1016	2.99321e+02	1.01600e+03	2.86434	298.0
1017	2.99817e+02	1.01700e+03	2.86342	298.5
1018	3.00301e+02	1.01800e+03	2.86249	299.0
1019	3.00792e+02	1.01900e+03	2.86155	299.5
1020	3.01296e+02	1.02000e+03	2.86057	300.0
1021	3.01894e+02	1.02100e+03	2.8596	300.5
1022	3.02410e+02	1.02200e+03	2.85863	301.0
1023	3.02945e+02	1.02300e+03	2.85764	301.5
1024	3.03477e+02	1.02400e+03	2.85661	302.0
1025	3.03967e+02	1.02500e+03	2.85558	302.5
1026	3.04481e+02	1.02600e+03	2.85452	303.0
1027	3.05003e+02	1.02700e+03	2.85346	303.5
1028	3.05495e+02	1.02800e+03	2.85233	304.0
1029	3.06033e+02	1.02900e+03	2.8512	304.5
1030	3.06539e+02	1.03000e+03	2.85007	305.0
1031	3.07035e+02	1.03100e+03	2.84893	305.5
1032	3.07511e+02	1.03200e+03	2.84772	306.0
1033	3.08005e+02	1.03300e+03	2.84652	306.5
1034	3.08545e+02	1.03400e+03	2.84529	307.0
1035	3.09067e+02	1.03500e+03	2.84404	307.5
1036	3.09608e+02	1.03600e+03	2.8427	308.0
1037	3.10150e+02	1.03700e+03	2.84135	308.5
1038	3.10693e+02	1.03800e+03	2.83996	309.0
1039	3.11161e+02	1.03900e+03	2.83855	309.5
1040	3.11664e+02	1.04000e+03	2.837	310.0
1041	3.12202e+02	1.04100e+03	2.8355	310.5
1042	3.12704e+02	1.04200e+03	2.83398	311.0
1043	3.13192e+02	1.04300e+03	2.83245	311.5
1044	3.13680e+02	1.04400e+03	2.83086	312.0
1045	3.14190e+02	1.04500e+03	2.8293	312.5
1046	3.14691e+02	1.04600e+03	2.82774	313.0
1047	3.15178e+02	1.04700e+03	2.82618	313.5
1048	3.15650e+02	1.04800e+03	2.82462	314.0
1049	3.16160e+02	1.04900e+03	2.82307	314.5
1050	3.16649e+02	1.05000e+03	2.82152	315.0
1051	3.17123e+02	1.05100e+03	2.81997	315.5
1052	3.17608e+02	1.05200e+03	2.81843	316.0
1053	3.18100e+02	1.05300e+03	2.81689	316.5
1054	3.18608e+02	1.05400e+03	2.81534	317.0
1055	3.19081e+02	1.05500e+03	2.8138	317.5
1056	3.19589e+02	1.05600e+03	2.81225	318.0
1057	3.20070e+02	1.05700e+03	2.8107	318.5
1058	3.20551e+02	1.05800e+03	2.80916	319.0
1059	3.21034e+02	1.05900e+03	2.80761	319.5
1060	3.21529e+02	1.06000e+03	2.80605	320.0
1061	3.22020e+02	1.06100e+03	2.80448	320.5
1062	3.22511e+02	1.06200e+03	2.8029	321.0
1063	3.23006e+02	1.06300e+03	2.8013	321.5
1064	3.23501e+02	1.06400e+03	2.79967	322.0
1065	3.23997e+02	1.06500e+03	2.79804	322.5
1066	3.24488e+02	1.06600e+03	2.79641	323.0
1067	3.24970e+02	1.06700e+03	2.79478	323.5
1068	3.25454e+02	1.06800e+03	2.79311	324.0
1069	3.25961e+02	1.06900e+03	2.79144	324.5
1070	3.26453e+02	1.07000e+03	2.78976	325.0
1071	3.26948e+02	1.07100e+03	2.78807	325.5
1072	3.27441e+02	1.07200e+03	2.78634	326.0
1073	3.27940e+02	1.07300e+03	2.78461	326.5
1074	3.28454e+02	1.07400e+03	2.78287	327.0
1075	3.28952e+02	1.07500e+03	2.78111	327.5
1076	3.29477e+02	1.07600e+03	2.7793	328.0
1077	3.29995e+02	1.07700e+03	2.77749	328.5
1078	3.30496e+02	1.07800e+03	2.77566	329.0
1079	3.31016e+02	1.07900e+03	2.77382	329.5
1080	3.31517e+02	1.08000e+03	2.77191	330.0
1081	3.32012e+02	1.08100e+03	2.77	330.5
1082	3.32503e+02	1.08200e+03	2.76807	331.0
1083	3.33024e+02	1.08300e+03	2.76612	331.5
1084	3.33520e+02	1.08400e+03	2.76408	332.0
1085	3.34021e+02	1.08500e+03	2.76203	332.5
1086	3.34509e+02	1.08600e+03	2.75995	333.0
1087	3.35007e+02	1.08700e+03	2.75784	333.5
1088	3.35504e+02	1.08800e+03	2.75561	334.0
1089	3.36016e+02	1.08900e+03	2.75339	334.5
1090	3.36512e+02	1.09000e+03	2.75114	335.0
1091	3.37015e+02	1.09100e+03	2.74886	335.5
1092	3.37524e+02	1.09200e+03	2.74644	336.0
1093	3.38034e+02	1.09300e+03	2.74402	336.5
1094	3.38546e+02	1.09400e+03	2.74155	337.0
1095	3.39042e+02	1.09500e+03	2.73905	337.5
1096	3.39545e+02	1.09600e+03	2.73635	338.0
1097	3.40037e+02	1.09700e+03	2.73368	338.5
1098	3.40531e+02	1.09800e+03	2.73096	339.0
1099	3.41044e+02	1.09900e+03	2.72821	339.5
1100	3.41537e+02	1.10000e+03	2.72525	340.0
1101	3.42029e+02	1.10100e+03	2.7223	340.5
1102	3.42544e+02	1.10200e+03	2.7193	341.0
1103	3.43059e+02	1.10300e+03	2.71624	341.5
1104	3.43569e+02	1.10400e+03	2.71298	342.0
1105	3.44084e+02	1.10500e+03	2.70975	342.5
1106	3.44611e+02	1.10600e+03	2.70649	343.0
1107	3.45149e+02	1.10700e+03	2.70316	343.5
1108	3.45654e+02	1.10800e+03	2.6995	344.0
1109	3.46131e+02	1.10900e+03	2.69574	344.5
1110	3.46636e+02	1.11000e+03	2.69176	345.0
1111	3.47149e+02	1.11100e+03	2.6876	345.5
1112	3.47640e+02	1.11200e+03	2.68266	346.0
1113	3.48135e+02	1.11300e+03	2.67778	346.5
1114	3.48632e+02	1.11400e+03	2.67273	347.0
1115	3.49120e+02	1.11500e+03	2.66754	347.5
1116	3.49627e+02	1.11600e+03	2.66156	348.0
1117	3.50137e+02	1.11700e+03	2.65582	348.5
1118	3.50645e+02	1.11800e+03	2.65004	349.0
1119	3.51135e+02	1.11900e+03	2.64419	349.5
1120	3.51625e+02	1.12000e+03	2.63795	350.0
1121	3.52105e+02	1.12100e+03	2.63177	350.5
1122	3.52578e+02	1.12200e+03	2.6255	351.0
1123	3.53069e+02	1.12300e+03	2.61914	351.5
1124	3.53565e+02	1.12400e+03	2.61238	352.0
1125	3.54071e+02	1.12500e+03	2.60562	352.5
1126	3.54552e+02	1.12600e+03	2.59873	353.0
1127	3.55044e+02	1.12700e+03	2.59171	353.5
1128	3.55548e+02	1.12800e+03	2.5841	354.0
1129	3.56036e+02	1.12900e+03	2.57652	354.5
1130	3.56534e+02	1.13000e+03	2.56876	355.0
1131	3.57024e+02	1.13100e+03	2.56085	355.5
1132	3.57519e+02	1.13200e+03	2.55216	356.0
1133	3.58011e+02	1.13300e+03	2.54352	356.5
1134	3.58499e+02	1.13400e+03	2.53468	357.0
1135	3.58990e+02	1.13500e+03	2.52567	357.5
1136	3.59470e+02	1.13600e+03	2.51575	358.0
1137	3.59976e+02	1.13700e+03	2.50596	358.5
1138	3.60451e+02	1.13800e+03	2.496	359.0
1139	3.60929e+02	1.13900e+03	2.48586	359.5
1140	3.61421e+02	1.14000e+03	2.47483	360.0
1141	3.61913e+02	1.14100e+03	2.46389	360.5
1142	3.62409e+02	1.14200e+03	2.45273	361.0
1143	3.62900e+02	1.14300e+03	2.44136	361.5
1144	3.63392e+02	1.14400e+03	2.42897	362.0
1145	3.63867e+02	1.14500e+03	2.41663	362.5
1146	3.64359e+02	1.14600e+03	2.40402	363.0
1147	3.64848e+02	1.14700e+03	2.39118	363.5
1148	3.65332e+02	1.14800e+03	2.3771	364.0
1149	3.65817e+02	1.14900e+03	2.3632	364.5
1150	3.66311e+02	1.15000e+03	2.34906	365.0
1151	3.66794e+02	1.15100e+03	2.33469	365.5
1152	3.67282e+02	1.15200e+03	2.31912	366.0
1153	3.67769e+02	1.15300e+03	2.30374	366.5
1154	3.68263e+02	1.15400e+03	2.28812	367.0
1155	3.68738e+02	1.15500e+03	2.2723	367.5
1156	3.69223e+02	1.15600e+03	2.25534	368.0
1157	3.69713e+02	1.15700e+03	2.23854	368.5
1158	3.70207e+02	1.15800e+03	2.22151	369.0
1159	3.70699e+02	1.15900e+03	2.20427	369.5
1160	3.71189e+02	1.16000e+03	2.18591	370.0
1161	3.71678e+02	1.16100e+03	2.1677	370.5
1162	3.72158e+02	1.16200e+03	2.14926	371.0
1163	3.72646e+02	1.16300e+03	2.13062	371.5
1164	3.73134e+02	1.16400e+03	2.11093	372.0
1165	3.73626e+02	1.16500e+03	2.09141	372.5
1166	3.74112e+02	1.16600e+03	2.07171	373.0
1167	3.74607e+02	1.16700e+03	2.05183	373.5
1168	3.75099e+02	1.16800e+03	2.03102	374.0
1169	3.75585e+02	1.16900e+03	2.01032	374.5
1170	3.76074e+02	1.17000e+03	1.98941	375.0
1171	3.76575e+02	1.17100e+03	1.96832	375.5
1172	3.77086e+02	1.17200e+03	1.94629	376.0
1173	3.77570e+02	1.17300e+03	1.9244	376.5
1174	3.78086e+02	1.17400e+03	1.90232	377.0
1175	3.78589e+02	1.17500e+03	1.88007	377.5
1176	3.79082e+02	1.17600e+03	1.85693	378.0
1177	3.79574e+02	1.17700e+03	1.83391	378.5
1178	3.80077e+02	1.17800e+03	1.81073	379.0
1179	3.80601e+02	1.17900e+03	1.7874	379.5
1180	3.81098e+02	1.18000e+03	1.76329	380.0
1181	3.81680e+02	1.18100e+03	1.73933	380.5
1182	3.82336e+02	1.18200e+03	1.71526	381.0
1183	3.82929e+02	1.18300e+03	1.69108	381.5
1184	3.83550e+02	1.18400e+03	1.66631	382.0
1185	3.84153e+02	1.18500e+03	1.64169	382.5
1186	3.84742e+02	1.18600e+03	1.61699	383.0
1187	3.85274e+02	1.18700e+03	1.59222	383.5
1188	3.85767e+02	1.18800e+03	1.56709	384.0
1189	3.86250e+02	1.18900e+03	1.54208	384.5
1190	3.86756e+02	1.19000e+03	1.51706	385.0
1191	3.87281e+02	1.19100e+03	1.49202	385.5
1192	3.87781e+02	1.19200e+03	1.46685	386.0
1193	3.88288e+02	1.19300e+03	1.44174	386.5
1194	3.88797e+02	1.19400e+03	1.41663	387.0
1195	3.89306e+02	1.19500e+03	1.39151	387.5
1196	3.89810e+02	1.19600e+03	1.36637	388.0
1197	3.90313e+02	1.19700e+03	1.34124	388.5
1198	3.90823e+02	1.19800e+03	1.31613	389.0
1199	3.91331e+02	1.19900e+03	1.29103	389.5
1200	3.91845e+02	1.20000e+03	1.26597	390.0
1201	3.92331e+02	1.20100e+03	1.24095	390.5
1202	3.92810e+02	1.20200e+03	1.21596	391.0
1203	3.93294e+02	1.20300e+03	1.19098	391.5
1204	3.93784e+02	1.20400e+03	1.16611	392.0
1205	3.94267e+02	1.20500e+03	1.14119	392.5
1206	3.94769e+02	1.20600e+03	1.11623	393.0
1207	3.95272e+02	1.20700e+03	1.09125	393.5
1208	3.95775e+02	1.20800e+03	1.06614	394.0
1209	3.96273e+02	1.20900e+03	1.04095	394.5
1210	3.96773e+02	1.21000e+03	1.01564	395.0
1211	3.97242e+02	1.21100e+03	0.990243	395.5
1212	3.97752e+02	1.21200e+03	0.964424	396.0
1213	3.98277e+02	1.21300e+03	0.938664	396.5
1214	3.98763e+02	1.21400e+03	0.912863	397.0
1215	3.99277e+02	1.21500e+03	0.887025	397.5
1216	3.99771e+02	1.21600e+03	0.860934	398.0
1217	4.00289e+02	1.21700e+03	0.835025	398.5
1218	4.00799e+02	1.21800e+03	0.809192	399.0
1219	4.01313e+02	1.21900e+03	0.783396	399.5
1220	4.01818e+02	1.22000e+03	0.75781	400.0
1221	4.02314e+02	1.22100e+03	0.732254	400.5
1222	4.02814e+02	1.22200e+03	0.706825	401.0
1223	4.03300e+02	1.22300e+03	0.681514	401.5
1224	4.03794e+02	1.22400e+03	0.656755	402.0
1225	4.04303e+02	1.22500e+03	0.632095	402.5
1226	4.04830e+02	1.22600e+03	0.607719	403.0
1227	4.05341e+02	1.22700e+03	0.583575	403.5
1228	4.05834e+02	1.22800e+03	0.560603	404.0
1229	4.06324e+02	1.22900e+03	0.537635	404.5
1230	4.06838e+02	1.23000e+03	0.515054	405.0
1231	4.07366e+02	1.23100e+03	0.492801	405.5
1232	4.07887e+02	1.23200e+03	0.47226	406.0
1233	4.08406e+02	1.23300e+03	0.45159	406.5
1234	4.08931e+02	1.23400e+03	0.431365	407.0
1235	4.09451e+02	1.23500e+03	0.411526	407.5
1236	4.09991e+02	1.23600e+03	0.393688	408.0
1237	4.10496e+02	1.23700e+03	0.375603	408.5
1238	4.11008e+02	1.23800e+03	0.357946	409.0
1239	4.11524e+02	1.23900e+03	0.340683	409.5
1240	4.12047e+02	1.24000e+03	0.325467	410.0
1241	4.12560e+02	1.24100e+03	0.309975	410.5
1242	4.13085e+02	1.24200e+03	0.2949	411.0
1243	4.13621e+02	1.24300e+03	0.280211	411.5
1244	4.14118e+02	1.24400e+03	0.267489	412.0
1245	4.14589e+02	1.24500e+03	0.254455	412.5
1246	4.15069e+02	1.24600e+03	0.241777	413.0
1247	4.15549e+02	1.24700e+03	0.229438	413.5
1248	4.16055e+02	1.24800e+03	0.218871	414.0
1249	4.16543e+02	1.24900e+03	0.208012	414.5
1250	4.17053e+02	1.25000e+03	0.197476	415.0
1251	4.17550e+02	1.25100e+03	0.187246	415.5
1252	4.18057e+02	1.25200e+03	0.178577	416.0
1253	4.18543e+02	1.25300e+03	0.169651	416.5
1254	4.19046e+02	1.25400e+03	0.161	417.0
1255	4.19533e+02	1.25500e+03	0.152613	417.5
1256	4.20019e+02	1.25600e+03	0.145601	418.0
1257	4.20519e+02	1.25700e+03	0.138354	418.5
1258	4.21001e+02	1.25800e+03	0.131347	419.0
1259	4.21484e+02	1.25900e+03	0.124572	419.5
1260	4.21958e+02	1.26000e+03	0.118974	420.0
1261	4.22435e+02	1.26100e+03	0.113172	420.5
1262	4.22915e+02	1.26200e+03	0.10757	421.0
1263	4.23395e+02	1.26300e+03	0.10216	421.5
1264	4.23881e+02	1.26400e+03	0.0977505	422.0
1265	4.24358e+02	1.26500e+03	0.0931606	422.5
1266	4.24848e+02	1.26600e+03	0.0887371	423.0
1267	4.25342e+02	1.26700e+03	0.0844764	423.5
1268	4.25827e+02	1.26800e+03	0.081047	424.0
1269	4.26314e+02	1.26900e+03	0.0774675	424.5
1270	4.26788e+02	1.27000e+03	0.0740221	425.0
1271	4.27292e+02	1.27100e+03	0.0707075	425.5
1272	4.27774e+02	1.27200e+03	0.0680724	426.0
1273	4.28258e+02	1.27300e+03	0.0653012	426.5
1274	4.28743e+02	1.27400e+03	0.0626305	427.0
1275	4.29237e+02	1.27500e+03	0.0600622	427.5
1276	4.29727e+02	1.27600e+03	0.0580168	428.0
1277	4.30231e+02	1.27700e+03	0.0558673	428.5
1278	4.30726e+02	1.27800e+03	0.0537932	429.0
1279	4.31226e+02	1.27900e+03	0.0517955	429.5
1280	4.31723e+02	1.28000e+03	0.0501941	430.0
1281	4.32230e+02	1.28100e+03	0.0485081	430.5
1282	4.32706e+02	1.28200e+03	0.0468772	431.0
1283	4.33200e+02	1.28300e+03	0.0453038	431.5
1284	4.33700e+02	1.28400e+03	0.044021	432.0
1285	4.34182e+02	1.28500e+03	0.0426828	432.5
1286	4.34680e+02	1.28600e+03	0.0413904	433.0
1287	4.35180e+02	1.28700e+03	0.0401432	433.5
1288	4.35677e+02	1.28800e+03	0.0391302	434.0
1289	4.36161e+02	1.28900e+03	0.0380759	434.5
1290	4.36655e+02	1.29000e+03	0.0370601	435.0
1291	4.37146e+02	1.29100e+03	0.0360822	435.5
1292	4.37626e+02	1.29200e+03	0.0352987	436.0
1293	4.38116e+02	1.29300e+03	0.0344753	436.5
1294	4.38597e+02	1.29400e+03	0.0336762	437.0
1295	4.39073e+02	1.29500e+03	0.032902	437.5
1296	4.39568e+02	1.29600e+03	0.0322701	438.0
1297	4.40052e+02	1.29700e+03	0.031608	438.5
1298	4.40539e+02	1.29800e+03	0.0309682	439.0
1299	4.41041e+02	1.29900e+03	0.0303511	439.5
1300	4.41524e+02	1.30000e+03	0.0298401	440.0
1301	4.42035e+02	1.30100e+03	0.0293122	440.5
1302	4.42523e+02	1.30200e+03	0.0288008	441.0
1303	4.42999e+02	1.30300e+03	0.028305	441.5
1304	4.43511e+02	1.30400e+03	0.0278949	442.0
1305	4.43979e+02	1.30500e+03	0.0274615	442.5
1306	4.44483e+02	1.30600e+03	0.0270392	443.0
1307	4.44965e+02	1.30700e+03	0.0266299	443.5
1308	4.45453e+02	1.30800e+03	0.0262761	444.0
1309	4.45943e+02	1.30900e+03	0.0259143	444.5
1310	4.46434e+02	1.31000e+03	0.0255599	445.0
1311	4.46912e+02	1.31100e+03	0.0252125	445.5
1312	4.47395e+02	1.31200e+03	0.0249074	446.0
1313	4.47881e+02	1.31300e+03	0.0245857	446.5
1314	4.48364e+02	1.31400e+03	0.0242664	447.0
1315	4.48867e+02	1.31500e+03	0.0239524	447.5
1316	4.49370e+02	1.31600e+03	0.0236612	448.0
1317	4.49844e+02	1.31700e+03	0.0233767	448.5
1318	4.50337e+02	1.31800e+03	0.0231054	449.0
1319	4.50820e+02	1.31900e+03	0.022843	449.5
1320	4.51300e+02	1.32000e+03	0.0226272	450.0
1321	4.51791e+02	1.32100e+03	0.0224073	450.5
1322	4.52262e+02	1.32200e+03	0.022198	451.0
1323	4.52751e+02	1.32300e+03	0.0219976	451.5
1324	4.53228e+02	1.32400e+03	0.0218491	452.0
1325	4.53708e+02	1.32500e+03	0.0216975	452.5
1326	4.54181e+02	1.32600e+03	0.0215608	453.0
1327	4.54646e+02	1.32700e+03	0.0214352	453.5
1328	4.55130e+02	1.32800e+03	0.0213547	454.0
1329	4.55622e+02	1.32900e+03	0.0212598	454.5
1330	4.56098e+02	1.33000e+03	0.0211683	455.0
1331	4.56577e+02	1.33100e+03	0.0210811	455.5
1332	4.57059e+02	1.33200e+03	0.0210189	456.0
1333	4.57557e+02	1.33300e+03	0.0209522	456.5
1334	4.58034e+02	1.33400e+03	0.0208881	457.0
1335	4.58516e+02	1.33500e+03	0.020826	457.5
1336	4.59007e+02	1.33600e+03	0.0207723	458.0
1337	4.59499e+02	1.33700e+03	0.0207088	458.5
1338	4.59980e+02	1.33800e+03	0.0206425	459.0
1339	4.60438e+02	1.33900e+03	0.020577	459.5
1340	4.60928e+02	1.34000e+03	0.0205114	460.0
1341	4.61411e+02	1.34100e+03	0.0204539	460.5
1342	4.61898e+02	1.34200e+03	0.0204033	461.0
1343	4.62397e+02	1.34300e+03	0.0203573	461.5
1344	4.62877e+02	1.34400e+03	0.0203302	462.0
1345	4.63374e+02	1.34500e+03	0.0202969	462.5
1346	4.63856e+02	1.34600e+03	0.0202635	463.0
1347	4.64339e+02	1.34700e+03	0.0202315	463.5
1348	4.64808e+02	1.34800e+03	0.0202124	464.0
1349	4.65272e+02	1.34900e+03	0.0201905	464.5
1350	4.65743e+02	1.35000e+03	0.0201709	465.0
1351	4.66224e+02	1.35100e+03	0.0201535	465.5
1352	4.66717e+02	1.35200e+03	0.0201469	466.0
1353	4.67198e+02	1.35300e+03	0.0201387	466.5
1354	4.67687e+02	1.35400e+03	0.020131	467.0
1355	4.68177e+02	1.35500e+03	0.0201249	467.5
1356	4.68663e+02	1.35600e+03	0.0201366	468.0
1357	4.69156e+02	1.35700e+03	0.0201501	468.5
1358	4.69653e+02	1.35800e+03	0.020169	469.0
1359	4.70136e+02	1.35900e+03	0.0201912	469.5
1360	4.70632e+02	1.36000e+03	0.0202255	470.0
1361	4.71119e+02	1.36100e+03	0.0202465	470.5
1362	4.71616e+02	1.36200e+03	0.0202562	471.0
1363	4.72108e+02	1.36300e+03	0.0202576	471.5
1364	4.72596e+02	1.36400e+03	0.020228	472.0
1365	4.73102e+02	1.36500e+03	0.0201958	472.5
1366	4.73599e+02	1.36600e+03	0.0201577	473.0
1367	4.74089e+02	1.36700e+03	0.0201164	473.5
1368	4.74591e+02	1.36800e+03	0.0200417	474.0
1369	4.75079e+02	1.36900e+03	0.0199872	474.5
1370	4.75575e+02	1.37000e+03	0.0199365	475.0
1371	4.76068e+02	1.37100e+03	0.0198863	475.5
1372	4.76564e+02	1.37200e+03	0.0198471	476.0
1373	4.77053e+02	1.37300e+03	0.0198074	476.5
1374	4.77539e+02	1.37400e+03	0.0197716	477.0
1375	4.78040e+02	1.37500e+03	0.0197391	477.5
1376	4.78538e+02	1.37600e+03	0.0197201	478.0
1377	4.79053e+02	1.37700e+03	0.0196998	478.5
1378	4.79544e+02	1.37800e+03	0.0196799	479.0
1379	4.80027e+02	1.37900e+03	0.0196595	479.5
1380	4.80514e+02	1.38000e+03	0.0196466	480.0
1381	4.81006e+02	1.38100e+03	0.0196276	480.5
1382	4.81498e+02	1.38200e+03	0.0196079	481.0
1383	4.81998e+02	1.38300e+03	0.0195886	481.5
1384	4.82493e+02	1.38400e+03	0.0195619	482.0
1385	4.82982e+02	1.38500e+03	0.0195382	482.5
1386	4.83467e+02	1.38600e+03	0.0195154	483.0
1387	4.83965e+02	1.38700e+03	0.0194928	483.5
1388	4.84450e+02	1.38800e+03	0.0194741	484.0
1389	4.84956e+02	1.38900e+03	0.0194584	484.5
1390	4.85446e+02	1.39000e+03	0.0194474	485.0
1391	4.85930e+02	1.39100e+03	0.0194404	485.5
1392	4.86413e+02	1.39200e+03	0.0194434	486.0
1393	4.86907e+02	1.39300e+03	0.0194411	486.5
1394	4.87390e+02	1.39400e+03	0.0194354	487.0
1395	4.87899e+02	1.39500e+03	0.0194272	487.5
1396	4.88383e+02	1.39600e+03	0.0194155	488.0
1397	4.88871e+02	1.39700e+03	0.019398	488.5
1398	4.89363e+02	1.39800e+03	0.0193775	489.0
1399	4.89861e+02	1.39900e+03	0.0193574	489.5
1400	4.90358e+02	1.40000e+03	0.0193355	490.0
1401	4.90849e+02	1.40100e+03	0.0193279	490.5
1402	4.91337e+02	1.40200e+03	0.0193281	491.0
1403	4.91839e+02	1.40300e+03	0.0193312	491.5
1404	4.92350e+02	1.40400e+03	0.0193551	492.0
1405	4.92839e+02	1.40500e+03	0.0193658	492.5
1406	4.93350e+02	1.40600e+03	0.0193728	493.0
1407	4.93862e+02	1.40700e+03	0.0193794	493.5
1408	4.94389e+02	1.40800e+03	0.0193848	494.0
1409	4.94905e+02	1.40900e+03	0.0193925	494.5
1410	4.95407e+02	1.41000e+03	0.0193999	495.0
1411	4.95899e+02	1.41100e+03	0.0194059	495.5
1412	4.96398e+02	1.41200e+03	0.0194009	496.0
1413	4.96929e+02	1.41300e+03	0.0193863	496.5
1414	4.97438e+02	1.41400e+03	0.0193598	497.0
1415	4.97914e+02	1.41500e+03	0.0193249	497.5
1416	4.98413e+02	1.41600e+03	0.0192584	498.0
1417	4.98884e+02	1.41700e+03	0.019208	498.5
1418	4.99381e+02	1.41800e+03	0.0191654	499.0
1419	4.99861e+02	1.41900e+03	0.0191266	499.5
1420	5.00354e+02	1.42000e+03	0.0190916	500.0
1421	5.00866e+02	1.42100e+03	0.0190646	500.5
1422	5.01354e+02	1.42200e+03	0.0190432	501.0
1423	5.01855e+02	1.42300e+03	0.0190255	501.5
1424	5.02361e+02	1.42400e+03	0.0190339	502.0
1425	5.02862e+02	1.42500e+03	0.0190318	502.5
1426	5.03361e+02	1.42600e+03	0.0190291	503.0
1427	5.03858e+02	1.42700e+03	0.0190264	503.5
1428	5.04346e+02	1.42800e+03	0.01902	504.0
1429	5.04841e+02	1.42900e+03	0.0190068	504.5
1430	5.05346e+02	1.43000e+03	0.0189888	505.0
1431	5.05833e+02	1.43100e+03	0.0189687	505.5
1432	5.06337e+02	1.43200e+03	0.0189382	506.0
1433	5.06816e+02	1.43300e+03	0.0189197	506.5
1434	5.07305e+02	1.43400e+03	0.0189099	507.0
1435	5.07792e+02	1.43500e+03	0.0189052	507.5
1436	5.08280e+02	1.43600e+03	0.018917	508.0
1437	5.08773e+02	1.43700e+03	0.0189261	508.5
1438	5.09274e+02	1.43800e+03	0.0189376	509.0
1439	5.09780e+02	1.43900e+03	0.0189517	509.5
1440	5.10249e+02	1.44000e+03	0.0189844	510.0
1441	5.10746e+02	1.44100e+03	0.0190127	510.5
1442	5.11228e+02	1.44200e+03	0.0190435	511.0
1443	5.11737e+02	1.44300e+03	0.0190763	511.5
1444	5.12246e+02	1.44400e+03	0.019113	512.0
1445	5.12766e+02	1.44500e+03	0.0191424	512.5
1446	5.13278e+02	1.44600e+03	0.0191658	513.0
1447	5.13773e+02	1.44700e+03	0.0191851	513.5
1448	5.14289e+02	1.44800e+03	0.0191907	514.0
1449	5.14790e+02	1.44900e+03	0.019197	514.5
1450	5.15287e+02	1.45000e+03	0.019203	515.0
1451	5.15785e+02	1.45100e+03	0.0192096	515.5
1452	5.16287e+02	1.45200e+03	0.0192065	516.0
1453	5.16783e+02	1.45300e+03	0.0192096	516.5
1454	5.17277e+02	1.45400e+03	0.0192114	517.0
1455	5.17785e+02	1.45500e+03	0.0192109	517.5
1456	5.18299e+02	1.45600e+03	0.0192047	518.0
1457	5.18852e+02	1.45700e+03	0.01919	518.5
1458	5.19365e+02	1.45800e+03	0.01917	519.0
1459	5.19854e+02	1.45900e+03	0.0191485	519.5
1460	5.20359e+02	1.46000e+03	0.0191097	520.0
1461	5.20874e+02	1.46100e+03	0.0190832	520.5
1462	5.21378e+02	1.46200e+03	0.019061	521.0
1463	5.21855e+02	1.46300e+03	0.0190415	521.5
1464	5.22376e+02	1.46400e+03	0.0190391	522.0
1465	5.22882e+02	1.46500e+03	0.0190384	522.5
1466	5.23358e+02	1.46600e+03	0.0190431	523.0
1467	5.23843e+02	1.46700e+03	0.0190519	523.5
1468	5.24337e+02	1.46800e+03	0.0190827	524.0
1469	5.24844e+02	1.46900e+03	0.0191014	524.5
1470	5.25351e+02	1.47000e+03	0.0191125	525.0
1471	5.25878e+02	1.47100e+03	0.0191176	525.5
1472	5.26409e+02	1.47200e+03	0.0190997	526.0
1473	5.26961e+02	1.47300e+03	0.0190711	526.5
1474	5.27440e+02	1.47400e+03	0.0190356	527.0
1475	5.28029e+02	1.47500e+03	0.0189986	527.5
1476	5.28627e+02	1.47600e+03	0.0189339	528.0
1477	5.29155e+02	1.47700e+03	0.0188988	528.5
1478	5.29611e+02	1.47800e+03	0.0188771	529.0
1479	5.31310e+02	1.47900e+03	0.0188614	529.5
1480	5.31736e+02	1.48000e+03	0.018883	530.0
1481	5.32162e+02	1.48100e+03	0.0188944	530.5
1482	5.32630e+02	1.48200e+03	0.018908	531.0
1483	5.33093e+02	1.48300e+03	0.0189247	531.5
1484	5.33444e+02	1.48400e+03	0.0189594	532.0
1485	5.33864e+02	1.48500e+03	0.0189862	532.5
1486	5.34322e+02	1.48600e+03	0.0190117	533.0
1487	5.34779e+02	1.48700e+03	0.0190362	533.5
1488	5.35141e+02	1.48800e+03	0.0190546	534.0
1489	5.35601e+02	1.48900e+03	0.0190675	534.5
1490	5.35928e+02	1.49000e+03	0.0190744	535.0
1491	5.36327e+02	1.49100e+03	0.0190775	535.5
1492	5.36708e+02	1.49200e+03	0.0190607	536.0
1493	5.37164e+02	1.49300e+03	0.0190491	536.5
1494	5.37652e+02	1.49400e+03	0.0190358	537.0
1495	5.38119e+02	1.49500e+03	0.0190201	537.5
1496	5.38615e+02	1.49600e+03	0.0189898	538.0
1497	5.39100e+02	1.49700e+03	0.0189643	538.5
1498	5.39592e+02	1.49800e+03	0.0189404	539.0
1499	5.40094e+02	1.49900e+03	0.0189175	539.5
1500	5.40600e+02	1.50000e+03	0.0188989	540.0
1501	5.41111e+02	1.50100e+03	0.0188893	540.5
1502	5.41590e+02	1.50200e+03	0.0188883	541.0
1503	5.42068e+02	1.50300e+03	0.018893	541.5
1504	5.42570e+02	1.50400e+03	0.0189187	542.0
1505	5.43081e+02	1.50500e+03	0.0189327	542.5
1506	5.43569e+02	1.50600e+03	0.0189428	543.0
1507	5.44046e+02	1.50700e+03	0.018951	543.5
1508	5.44508e+02	1.50800e+03	0.01895	544.0
1509	5.44964e+02	1.50900e+03	0.0189418	544.5
1510	5.45430e+02	1.51000e+03	0.0189281	545.0
1511	5.45945e+02	1.51100e+03	0.0189116	545.5
1512	5.46435e+02	1.51200e+03	0.0188724	546.0
1513	5.46948e+02	1.51300e+03	0.0188435	546.5
1514	5.47465e+02	1.51400e+03	0.0188172	547.0
1515	5.47981e+02	1.51500e+03	0.0187922	547.5
1516	5.48489e+02	1.51600e+03	0.0187773	548.0
1517	5.49062e+02	1.51700e+03	0.0187714	548.5
1518	5.49559e+02	1.51800e+03	0.0187761	549.0
1519	5.50087e+02	1.51900e+03	0.0187869	549.5
1520	5.50538e+02	1.52000e+03	0.0188251	550.0
1521	5.51049e+02	1.52100e+03	0.0188494	550.5
1522	5.51573e+02	1.52200e+03	0.0188682	551.0
1523	5.52037e+02	1.52300e+03	0.0188846	551.5
1524	5.52505e+02	1.52400e+03	0.0189004	552.0
1525	5.52982e+02	1.52500e+03	0.0189119	552.5
1526	5.53438e+02	1.52600e+03	0.0189227	553.0
1527	5.53912e+02	1.52700e+03	0.0189339	553.5
1528	5.54371e+02	1.52800e+03	0.0189333	554.0
1529	5.54853e+02	1.52900e+03	0.0189362	554.5
1530	5.55316e+02	1.53000e+03	0.0189365	555.0
1531	5.55782e+02	1.53100e+03	0.0189347	555.5
1532	5.56271e+02	1.53200e+03	0.0189313	556.0
1533	5.56755e+02	1.53300e+03	0.0189296	556.5
1534	5.57206e+02	1.53400e+03	0.018932	557.0
1535	5.57673e+02	1.53500e+03	0.0189374	557.5
1536	5.58157e+02	1.53600e+03	0.0189473	558.0
1537	5.58637e+02	1.53700e+03	0.0189583	558.5
1538	5.59118e+02	1.53800e+03	0.0189678	559.0
1539	5.59579e+02	1.53900e+03	0.0189756	559.5
1540	5.60046e+02	1.54000e+03	0.0189857	560.0
1541	5.60524e+02	1.54100e+03	0.0189885	560.5
1542	5.61014e+02	1.54200e+03	0.0189888	561.0
1543	5.61507e+02	1.54300e+03	0.0189879	561.5
1544	5.62002e+02	1.54400e+03	0.0189675	562.0
1545	5.62481e+02	1.54500e+03	0.0189498	562.5
1546	5.62967e+02	1.54600e+03	0.018929	563.0
1547	5.63462e+02	1.54700e+03	0.0189056	563.5
1548	5.63954e+02	1.54800e+03	0.018873	564.0
1549	5.64437e+02	1.54900e+03	0.0188498	564.5
1550	5.64924e+02	1.55000e+03	0.0188355	565.0
1551	5.65419e+02	1.55100e+03	0.0188273	565.5
1552	5.65904e+02	1.55200e+03	0.0188363	566.0
1553	5.66391e+02	1.55300e+03	0.0188456	566.5
1554	5.66861e+02	1.55400e+03	0.018855	567.0
1555	5.67354e+02	1.55500e+03	0.0188631	567.5
1556	5.67835e+02	1.55600e+03	0.0188823	568.0
1557	5.68333e+02	1.55700e+03	0.0188882	568.5
1558	5.68802e+02	1.55800e+03	0.0188912	569.0
1559	5.69283e+02	1.55900e+03	0.0188944	569.5
1560	5.69775e+02	1.56000e+03	0.0188829	570.0
1561	5.70273e+02	1.56100e+03	0.0188806	570.5
1562	5.70742e+02	1.56200e+03	0.0188792	571.0
1563	5.71223e+02	1.56300e+03	0.0188774	571.5
1564	5.71709e+02	1.56400e+03	0.0188792	572.0
1565	5.72182e+02	1.56500e+03	0.0188772	572.5
1566	5.72676e+02	1.56600e+03	0.0188753	573.0
1567	5.73155e+02	1.56700e+03	0.0188745	573.5
1568	5.73640e+02	1.56800e+03	0.0188741	574.0
1569	5.74118e+02	1.56900e+03	0.0188759	574.5
1570	5.74603e+02	1.57000e+03	0.0188778	575.0
1571	5.75089e+02	1.57100e+03	0.0188797	575.5
1572	5.75570e+02	1.57200e+03	0.0188859	576.0
1573	5.76052e+02	1.57300e+03	0.0188897	576.5
1574	5.76534e+02	1.57400e+03	0.0188952	577.0
1575	5.77033e+02	1.57500e+03	0.0189026	577.5
1576	5.77518e+02	1.57600e+03	0.0189112	578.0
1577	5.78009e+02	1.57700e+03	0.0189214	578.5
1578	5.78479e+02	1.57800e+03	0.0189318	579.0
1579	5.78971e+02	1.57900e+03	0.0189416	579.5
1580	5.79450e+02	1.58000e+03	0.0189504	580.0
1581	5.79930e+02	1.58100e+03	0.0189523	580.5
1582	5.80415e+02	1.58200e+03	0.0189507	581.0
1583	5.80913e+02	1.58300e+03	0.0189476	581.5
1584	5.81392e+02	1.58400e+03	0.0189338	582.0
1585	5.81898e+02	1.58500e+03	0.0189296	582.5
1586	5.82377e+02	1.58600e+03	0.0189294	583.0
1587	5.82868e+02	1.58700e+03	0.0189302	583.5
1588	5.83365e+02	1.58800e+03	0.0189324	584.0
1589	5.83868e+02	1.58900e+03	0.0189257	584.5
1590	5.84385e+02	1.59000e+03	0.0189116	585.0
1591	5.84900e+02	1.59100e+03	0.0188933	585.5
1592	5.85386e+02	1.59200e+03	0.0188681	586.0
1593	5.85883e+02	1.59300e+03	0.0188537	586.5
1594	5.86363e+02	1.59400e+03	0.0188471	587.0
1595	5.86845e+02	1.59500e+03	0.0188455	587.5
1596	5.87322e+02	1.59600e+03	0.0188601	588.0
1597	5.87820e+02	1.59700e+03	0.0188746	588.5
1598	5.88309e+02	1.59800e+03	0.0188929	589.0
1599	5.88795e+02	1.59900e+03	0.0189149	589.5
1600	5.89274e+02	1.60000e+03	0.018961	590.0
1601	5.89765e+02	1.60100e+03	0.0189999	590.5
1602	5.90259e+02	1.60200e+03	0.0190391	591.0
1603	5.90758e+02	1.60300e+03	0.0190786	591.5
1604	5.91250e+02	1.60400e+03	0.019117	592.0
1605	5.91725e+02	1.60500e+03	0.0191435	592.5
1606	5.92244e+02	1.60600e+03	0.0191592	593.0
1607	5.92733e+02	1.60700e+03	0.0191679	593.5
1608	5.93234e+02	1.60800e+03	0.0191482	594.0
1609	5.93734e+02	1.60900e+03	0.019138	594.5
1610	5.94265e+02	1.61000e+03	0.0191303	595.0
1611	5.94788e+02	1.61100e+03	0.0191239	595.5
1612	5.95301e+02	1.61200e+03	0.0191107	596.0
1613	5.95799e+02	1.61300e+03	0.0191067	596.5
1614	5.96315e+02	1.61400e+03	0.0191043	597.0
1615	5.96822e+02	1.61500e+03	0.0191007	597.5
1616	5.97308e+02	1.61600e+03	0.0191075	598.0
1617	5.97807e+02	1.61700e+03	0.0191078	598.5
1618	5.98312e+02	1.61800e+03	0.0191095	599.0
1619	5.98823e+02	1.61900e+03	0.019114	599.5
1620	5.99319e+02	1.62000e+03	0.0191182	600.0
1621	5.99832e+02	1.62100e+03	0.0191248	600.5
1622	6.00343e+02	1.62200e+03	0.0191304	601.0
1623	6.00833e+02	1.62300e+03	0.0191345	601.5
1624	6.01347e+02	1.62400e+03	0.0191393	602.0
1625	6.01854e+02	1.62500e+03	0.0191384	602.5
1626	6.02367e+02	1.62600e+03	0.019137	603.0
1627	6.02831e+02	1.62700e+03	0.0191369	603.5
1628	6.03303e+02	1.62800e+03	0.019128	604.0
1629	6.03774e+02	1.62900e+03	0.0191251	604.5
1630	6.04302e+02	1.63000e+03	0.0191217	605.0
1631	6.04832e+02	1.63100e+03	0.0191163	605.5
1632	6.05354e+02	1.63200e+03	0.019108	606.0
1633	6.05815e+02	1.63300e+03	0.0190915	606.5
1634	6.06302e+02	1.63400e+03	0.0190704	607.0
1635	6.06783e+02	1.63500e+03	0.0190476	607.5
1636	6.07281e+02	1.63600e+03	0.0190114	608.0
1637	6.07818e+02	1.63700e+03	0.0189861	608.5
1638	6.08313e+02	1.63800e+03	0.0189641	609.0
1639	6.08889e+02	1.63900e+03	0.0189426	609.5
1640	6.09373e+02	1.64000e+03	0.0189272	610.0
1641	6.09838e+02	1.64100e+03	0.0189082	610.5
1642	6.10323e+02	1.64200e+03	0.0188886	611.0
1643	6.10771e+02	1.64300e+03	0.0188695	611.5
1644	6.11211e+02	1.64400e+03	0.0188555	612.0
1645	6.11681e+02	1.64500e+03	0.0188454	612.5
1646	6.12166e+02	1.64600e+03	0.0188395	613.0
1647	6.12628e+02	1.64700e+03	0.018836	613.5
1648	6.13116e+02	1.64800e+03	0.0188444	614.0
1649	6.13605e+02	1.64900e+03	0.0188494	614.5
1650	6.14081e+02	1.65000e+03	0.0188564	615.0
1651	6.14545e+02	1.65100e+03	0.0188655	615.5
1652	6.15033e+02	1.65200e+03	0.0188826	616.0
1653	6.15535e+02	1.65300e+03	0.0188986	616.5
1654	6.16017e+02	1.65400e+03	0.018914	617.0
1655	6.16518e+02	1.65500e+03	0.0189285	617.5
1656	6.17019e+02	1.65600e+03	0.0189422	618.0
1657	6.17490e+02	1.65700e+03	0.0189503	618.5
1658	6.17958e+02	1.65800e+03	0.0189553	619.0
1659	6.18451e+02	1.65900e+03	0.0189591	619.5
1660	6.18973e+02	1.66000e+03	0.0189518	620.0
1661	6.19497e+02	1.66100e+03	0.0189486	620.5
1662	6.20015e+02	1.66200e+03	0.0189435	621.0
1663	6.20549e+02	1.66300e+03	0.0189366	621.5
1664	6.21035e+02	1.66400e+03	0.0189181	622.0
1665	6.21537e+02	1.66500e+03	0.0188959	622.5
1666	6.22060e+02	1.66600e+03	0.0188736	623.0
1667	6.22605e+02	1.66700e+03	0.0188532	623.5
1668	6.23175e+02	1.66800e+03	0.0188317	624.0
1669	6.23667e+02	1.66900e+03	0.0188254	624.5
1670	6.24323e+02	1.67000e+03	0.0188282	625.0
1671	6.24844e+02	1.67100e+03	0.0188357	625.5
1672	6.25274e+02	1.67200e+03	0.0188691	626.0
1673	6.25697e+02	1.67300e+03	0.018885	626.5
1674	6.26148e+02	1.67400e+03	0.0188939	627.0
1675	6.26588e+02	1.67500e+03	0.0189	627.5
1676	6.27068e+02	1.67600e+03	0.018893	628.0
1677	6.27538e+02	1.67700e+03	0.0188842	628.5
1678	6.28035e+02	1.67800e+03	0.0188716	629.0
1679	6.28513e+02	1.67900e+03	0.0188564	629.5
1680	6.28998e+02	1.68000e+03	0.0188212	630.0
1681	6.29478e+02	1.68100e+03	0.0187927	630.5
1682	6.29969e+02	1.68200e+03	0.0187656	631.0
1683	6.30452e+02	1.68300e+03	0.0187395	631.5
1684	6.30933e+02	1.68400e+03	0.0187211	632.0
1685	6.31427e+02	1.68500e+03	0.0187133	632.5
1686	6.31925e+02	1.68600e+03	0.0187164	633.0
1687	6.32405e+02	1.68700e+03	0.0187263	633.5
1688	6.32893e+02	1.68800e+03	0.0187657	634.0
1689	6.33378e+02	1.68900e+03	0.0187917	634.5
1690	6.33855e+02	1.69000e+03	0.0188143	635.0
1691	6.34354e+02	1.69100e+03	0.0188365	635.5
1692	6.34847e+02	1.69200e+03	0.018861	636.0
1693	6.35327e+02	1.69300e+03	0.0188791	636.5
1694	6.35826e+02	1.69400e+03	0.0188943	637.0
1695	6.36306e+02	1.69500e+03	0.0189077	637.5
1696	6.36786e+02	1.69600e+03	0.0189043	638.0
1697	6.37280e+02	1.69700e+03	0.0189044	638.5
1698	6.37764e+02	1.69800e+03	0.0189035	639.0
1699	6.38249e+02	1.69900e+03	0.0189022	639.5
1700	6.38751e+02	1.70000e+03	0.0188968	640.0
1701	6.39231e+02	1.70100e+03	0.0188966	640.5
1702	6.39724e+02	1.70200e+03	0.0188985	641.0
1703	6.40233e+02	1.70300e+03	0.0189013	641.5
1704	6.40717e+02	1.70400e+03	0.0189104	642.0
1705	6.41212e+02	1.70500e+03	0.0189161	642.5
1706	6.41703e+02	1.70600e+03	0.0189196	643.0
1707	6.42195e+02	1.70700e+03	0.0189215	643.5
1708	6.42687e+02	1.70800e+03	0.0189201	644.0
1709	6.43196e+02	1.70900e+03	0.01892	644.5
1710	6.43673e+02	1.71000e+03	0.0189209	645.0
1711	6.44166e+02	1.71100e+03	0.0189221	645.5
1712	6.44656e+02	1.71200e+03	0.018923	646.0
1713	6.45147e+02	1.71300e+03	0.0189268	646.5
1714	6.45632e+02	1.71400e+03	0.01893	647.0
1715	6.46118e+02	1.71500e+03	0.0189322	647.5
1716	6.46599e+02	1.71600e+03	0.0189348	648.0
1717	6.47096e+02	1.71700e+03	0.0189354	648.5
1718	6.47586e+02	1.71800e+03	0.0189389	649.0
1719	6.48082e+02	1.71900e+03	0.0189445	649.5
1720	6.48568e+02	1.72000e+03	0.0189445	650.0
1721	6.49064e+02	1.72100e+03	0.0189448	650.5
1722	6.49550e+02	1.72200e+03	0.0189407	651.0
1723	6.50056e+02	1.72300e+03	0.0189329	651.5
1724	6.50538e+02	1.72400e+03	0.0189126	652.0
1725	6.51030e+02	1.72500e+03	0.0188883	652.5
1726	6.51528e+02	1.72600e+03	0.0188625	653.0
1727	6.52020e+02	1.72700e+03	0.0188362	653.5
1728	6.52516e+02	1.72800e+03	0.018793	654.0
1729	6.53007e+02	1.72900e+03	0.0187597	654.5
1730	6.53495e+02	1.73000e+03	0.0187257	655.0
1731	6.53987e+02	1.73100e+03	0.0186891	655.5
1732	6.54487e+02	1.73200e+03	0.0186494	656.0
1733	6.54973e+02	1.73300e+03	0.0186041	656.5
1734	6.55465e+02	1.73400e+03	0.0185586	657.0
1735	6.55958e+02	1.73500e+03	0.0185147	657.5
1736	6.56444e+02	1.73600e+03	0.0184695	658.0
1737	6.56939e+02	1.73700e+03	0.0184399	658.5
1738	6.57430e+02	1.73800e+03	0.0184206	659.0
1739	6.57927e+02	1.73900e+03	0.0184073	659.5
1740	6.58431e+02	1.74000e+03	0.018431	660.0
1741	6.58931e+02	1.74100e+03	0.0184462	660.5
1742	6.59429e+02	1.74200e+03	0.0184653	661.0
1743	6.59939e+02	1.74300e+03	0.0184881	661.5
1744	6.60430e+02	1.74400e+03	0.0185331	662.0
1745	6.60920e+02	1.74500e+03	0.0185702	662.5
1746	6.61426e+02	1.74600e+03	0.0186052	663.0
1747	6.61911e+02	1.74700e+03	0.0186382	663.5
1748	6.62417e+02	1.74800e+03	0.0186588	664.0
1749	6.62910e+02	1.74900e+03	0.0186675	664.5
1750	6.63420e+02	1.75000e+03	0.0186688	665.0
1751	6.63902e+02	1.75100e+03	0.0186672	665.5
1752	6.64409e+02	1.75200e+03	0.0186441	666.0
1753	6.64920e+02	1.75300e+03	0.0186433	666.5
1754	6.65420e+02	1.75400e+03	0.018652	667.0
1755	6.65913e+02	1.75500e+03	0.0186642	667.5
1756	6.66399e+02	1.75600e+03	0.0186935	668.0
1757	6.66905e+02	1.75700e+03	0.0187087	668.5
1758	6.67397e+02	1.75800e+03	0.0187157	669.0
1759	6.67897e+02	1.75900e+03	0.0187186	669.5
1760	6.68393e+02	1.76000e+03	0.0187078	670.0
1761	6.68887e+02	1.76100e+03	0.0186953	670.5
1762	6.69381e+02	1.76200e+03	0.0186787	671.0
1763	6.69885e+02	1.76300e+03	0.0186599	671.5
1764	6.70382e+02	1.76400e+03	0.0186227	672.0
1765	6.70873e+02	1.76500e+03	0.0185959	672.5
1766	6.71373e+02	1.76600e+03	0.0185722	673.0
1767	6.71865e+02	1.76700e+03	0.0185503	673.5
1768	6.72359e+02	1.76800e+03	0.01854	674.0
1769	6.72854e+02	1.76900e+03	0.018534	674.5
1770	6.73342e+02	1.77000e+03	0.0185339	675.0
1771	6.73833e+02	1.77100e+03	0.0185376	675.5
1772	6.74312e+02	1.77200e+03	0.0185618	676.0
1773	6.74826e+02	1.77300e+03	0.0185758	676.5
1774	6.75309e+02	1.77400e+03	0.0185848	677.0
1775	6.75795e+02	1.77500e+03	0.0185908	677.5
1776	6.76299e+02	1.77600e+03	0.0185888	678.0
1777	6.76800e+02	1.77700e+03	0.018581	678.5
1778	6.77300e+02	1.77800e+03	0.0185683	679.0
1779	6.77799e+02	1.77900e+03	0.0185522	679.5
1780	6.78289e+02	1.78000e+03	0.0185077	680.0
1781	6.78793e+02	1.78100e+03	0.0184712	680.5
1782	6.79287e+02	1.78200e+03	0.0184367	681.0
1783	6.79792e+02	1.78300e+03	0.0184041	681.5
1784	6.80286e+02	1.78400e+03	0.0183721	682.0
1785	6.80784e+02	1.78500e+03	0.0183483	682.5
1786	6.81277e+02	1.78600e+03	0.0183292	683.0
1787	6.81780e+02	1.78700e+03	0.0183131	683.5
1788	6.82285e+02	1.78800e+03	0.0183225	684.0
1789	6.82781e+02	1.78900e+03	0.0183268	684.5
1790	6.83275e+02	1.79000e+03	0.0183339	685.0
1791	6.83781e+02	1.79100e+03	0.0183438	685.5
1792	6.84283e+02	1.79200e+03	0.0183707	686.0
1793	6.84797e+02	1.79300e+03	0.0183934	686.5
1794	6.85279e+02	1.79400e+03	0.0184173	687.0
1795	6.85473e+02	1.79500e+03	0.0184433	687.5
1796	6.85639e+02	1.79600e+03	0.0184853	688.0
1797	6.85928e+02	1.79700e+03	0.0185269	688.5
1798	6.86280e+02	1.79800e+03	0.0185691	689.0
1799	6.86641e+02	1.79900e+03	0.0186108	689.5
1800	6.86993e+02	1.80000e+03	0.018659	690.0
1801	6.87337e+02	1.80100e+03	0.0186906	690.5
1802	6.87655e+02	1.80200e+03	0.0187055	691.0
1803	6.87968e+02	1.80300e+03	0.0187093	691.5
1804	6.88282e+02	1.80400e+03	0.0186793	692.0
1805	6.88583e+02	1.80500e+03	0.0186547	692.5
1806	6.88867e+02	1.80600e+03	0.0186297	693.0
1807	6.89148e+02	1.80700e+03	0.0186047	693.5
1808	6.89422e+02	1.80800e+03	0.0185623	694.0
1809	6.89687e+02	1.80900e+03	0.0185365	694.5
1810	6.89947e+02	1.81000e+03	0.0185156	695.0
1811	6.90203e+02	1.81100e+03	0.0184973	695.5
1812	6.90448e+02	1.81200e+03	0.0185003	696.0
1813	6.90675e+02	1.81300e+03	0.0184973	696.5
1814	6.90900e+02	1.81400e+03	0.018497	697.0
1815	6.91131e+02	1.81500e+03	0.0185001	697.5
1816	6.91345e+02	1.81600e+03	0.0185103	698.0
1817	6.91550e+02	1.81700e+03	0.0185142	698.5
1818	6.91747e+02	1.81800e+03	0.01851	699.0
1819	6.91947e+02	1.81900e+03	0.0184993	699.5
1820	6.92140e+02	1.82000e+03	0.0184762	700.0
1821	6.92330e+02	1.82100e+03	0.0184541	700.0
1822	6.92504e+02	1.82200e+03	0.0184338	700.0
1823	6.92686e+02	1.82300e+03	0.0184155	700.0
1824	6.92863e+02	1.82400e+03	0.0183975	700.0
1825	6.93024e+02	1.82500e+03	0.0183929	700.0
1826	6.93186e+02	1.82600e+03	0.0183923	700.0
1827	6.93351e+02	1.82700e+03	0.0183926	700.0
1828	6.93498e+02	1.82800e+03	0.0184072	700.0
1829	6.93656e+02	1.82900e+03	0.0184016	700.0
1830	6.93795e+02	1.83000e+03	0.0183909	700.0
1831	6.93939e+02	1.83100e+03	0.0183801	700.0
1832	6.94070e+02	1.83200e+03	0.0183526	700.0
1833	6.94203e+02	1.83300e+03	0.0183409	700.0
1834	6.94326e+02	1.83400e+03	0.018332	700.0
1835	6.94438e+02	1.83500e+03	0.0183221	700.0
1836	6.94559e+02	1.83600e+03	0.0183187	700.0
1837	6.94670e+02	1.83700e+03	0.0183089	700.0
1838	6.94784e+02	1.83800e+03	0.0183029	700.0
1839	6.94896e+02	1.83900e+03	0.0183014	700.0
1840	6.94996e+02	1.84000e+03	0.0183077	700.0
1841	6.95095e+02	1.84100e+03	0.0183222	700.0
1842	6.95202e+02	1.84200e+03	0.0183404	700.0
1843	6.95286e+02	1.84300e+03	0.0183601	700.0
1844	6.95385e+02	1.84400e+03	0.0183998	700.0
1845	6.95481e+02	1.84500e+03	0.0184214	700.0
1846	6.95570e+02	1.84600e+03	0.0184354	700.0
1847	6.95655e+02	1.84700e+03	0.0184457	700.0
1848	6.95736e+02	1.84800e+03	0.0184354	700.0
1849	6.95833e+02	1.84900e+03	0.0184333	700.0
1850	6.95909e+02	1.85000e+03	0.0184316	700.0
1851	6.95994e+02	1.85100e+03	0.0184277	700.0
1852	6.96068e+02	1.85200e+03	0.0184096	700.0
1853	6.96144e+02	1.85300e+03	0.0183935	700.0
1854	6.96217e+02	1.85400e+03	0.0183773	700.0
1855	6.96282e+02	1.85500e+03	0.0183618	700.0
1856	6.96358e+02	1.85600e+03	0.0183444	700.0
1857	6.96425e+02	1.85700e+03	0.0183339	700.0
1858	6.96504e+02	1.85800e+03	0.0183271	700.0
1859	6.96564e+02	1.85900e+03	0.0183224	700.0
1860	6.96624e+02	1.86000e+03	0.018329	700.0
1861	6.96672e+02	1.86100e+03	0.0183297	700.0
1862	6.96742e+02	1.86200e+03	0.0183291	700.0
1863	6.96804e+02	1.86300e+03	0.0183281	700.0
1864	6.96863e+02	1.86400e+03	0.0183247	700.0
1865	6.96923e+02	1.86500e+03	0.0183202	700.0
1866	6.96955e+02	1.86600e+03	0.0183145	700.0
1867	6.97025e+02	1.86700e+03	0.0183077	700.0
1868	6.97072e+02	1.86800e+03	0.0182901	700.0
1869	6.97133e+02	1.86900e+03	0.0182729	700.0
1870	6.97169e+02	1.87000e+03	0.018256	700.0
1871	6.97225e+02	1.87100e+03	0.0182394	700.0
1872	6.97260e+02	1.87200e+03	0.0182182	700.0
1873	6.97303e+02	1.87300e+03	0.0182032	700.0
1874	6.97341e+02	1.87400e+03	0.0181913	700.0
1875	6.97381e+02	1.87500e+03	0.0181813	700.0
1876	6.97408e+02	1.87600e+03	0.0181828	700.0
1877	6.97444e+02	1.87700e+03	0.018181	700.0
1878	6.97479e+02	1.87800e+03	0.0181784	700.0
1879	6.97517e+02	1.87900e+03	0.0181764	700.0
1880	6.97559e+02	1.88000e+03	0.0181888	700.0
1881	6.97593e+02	1.88100e+03	0.0182041	700.0
1882	6.97616e+02	1.88200e+03	0.018225	700.0
1883	6.97652e+02	1.88300e+03	0.0182501	700.0
1884	6.97695e+02	1.88400e+03	0.0182947	700.0
1885	6.97727e+02	1.88500e+03	0.0183296	700.0
1886	6.97763e+02	1.88600e+03	0.0183566	700.0
1887	6.97782e+02	1.88700e+03	0.018378	700.0
1888	6.97812e+02	1.88800e+03	0.0183862	700.0
1889	6.97858e+02	1.88900e+03	0.018387	700.0
1890	6.97884e+02	1.89000e+03	0.0183826	700.0
1891	6.97909e+02	1.89100e+03	0.0183768	700.0
1892	6.97950e+02	1.89200e+03	0.0183442	700.0
1893	6.97965e+02	1.89300e+03	0.0183218	700.0
1894	6.97999e+02	1.89400e+03	0.018297	700.0
1895	6.98015e+02	1.89500e+03	0.0182701	700.0
1896	6.98040e+02	1.89600e+03	0.0182439	700.0
1897	6.98064e+02	1.89700e+03	0.0182172	700.0
1898	6.98092e+02	1.89800e+03	0.0181918	700.0
1899	6.98113e+02	1.89900e+03	0.0181681	700.0
1900	6.98138e+02	1.90000e+03	0.0181532	700.0
1901	6.98159e+02	1.90100e+03	0.0181447	700.0
1902	6.98171e+02	1.90200e+03	0.0181396	700.0
1903	6.98187e+02	1.90300e+03	0.0181353	700.0
1904	6.98215e+02	1.90400e+03	0.0181463	700.0
1905	6.98233e+02	1.90500e+03	0.0181479	700.0
1906	6.98251e+02	1.90600e+03	0.0181508	700.0
1907	6.98268e+02	1.90700e+03	0.0181578	700.0
1908	6.98286e+02	1.90800e+03	0.0181715	700.0
1909	6.98309e+02	1.90900e+03	0.0181889	700.0
1910	6.98319e+02	1.91000e+03	0.0182073	700.0
1911	6.98338e+02	1.91100e+03	0.0182258	700.0
1912	6.98356e+02	1.91200e+03	0.0182542	700.0
1913	6.98383e+02	1.91300e+03	0.0182714	700.0
1914	6.98396e+02	1.91400e+03	0.0182869	700.0
1915	6.98407e+02	1.91500e+03	0.0183022	700.0
1916	6.98426e+02	1.91600e+03	0.0183003	700.0
1917	6.98443e+02	1.91700e+03	0.0183029	700.0
1918	6.98452e+02	1.91800e+03	0.0183042	700.0
1919	6.98471e+02	1.91900e+03	0.0183038	700.0
1920	6.98502e+02	1.92000e+03	0.0182988	700.0
1921	6.98500e+02	1.92100e+03	0.0182967	700.0
1922	6.98509e+02	1.92200e+03	0.0182961	700.0
1923	6.98530e+02	1.92300e+03	0.0182965	700.0
1924	6.98538e+02	1.92400e+03	0.0183019	700.0
1925	6.98551e+02	1.92500e+03	0.0183095	700.0
1926	6.98563e+02	1.92600e+03	0.0183193	700.0
1927	6.98573e+02	1.92700e+03	0.0183306	700.0
1928	6.98575e+02	1.92800e+03	0.0183482	700.0
1929	6.98588e+02	1.92900e+03	0.0183577	700.0
1930	6.98588e+02	1.93000e+03	0.0183645	700.0
1931	6.98600e+02	1.93100e+03	0.0183712	700.0
1932	6.98596e+02	1.93200e+03	0.018373	700.0
1933	6.98621e+02	1.93300e+03	0.018378	700.0
1934	6.98627e+02	1.93400e+03	0.0183835	700.0
1935	6.98643e+02	1.93500e+03	0.0183887	700.0
1936	6.98640e+02	1.93600e+03	0.0183922	700.0
1937	6.98652e+02	1.93700e+03	0.0183934	700.0
1938	6.98664e+02	1.93800e+03	0.0183923	700.0
1939	6.98670e+02	1.93900e+03	0.0183896	700.0
1940	6.98682e+02	1.94000e+03	0.0183771	700.0
1941	6.98694e+02	1.94100e+03	0.0183652	700.0
1942	6.98684e+02	1.94200e+03	0.0183514	700.0
1943	6.98705e+02	1.94300e+03	0.0183361	700.0
1944	6.98719e+02	1.94400e+03	0.0183126	700.0
1945	6.98716e+02	1.94500e+03	0.0182933	700.0
1946	6.98723e+02	1.94600e+03	0.0182749	700.0
1947	6.98732e+02	1.94700e+03	0.0182568	700.0
1948	6.98738e+02	1.94800e+03	0.0182459	700.0
1949	6.98734e+02	1.94900e+03	0.0182377	700.0
1950	6.98749e+02	1.95000e+03	0.0182291	700.0
1951	6.98756e+02	1.95100e+03	0.0182195	700.0
1952	6.98755e+02	1.95200e+03	0.0182115	700.0
1953	6.98758e+02	1.95300e+03	0.0181942	700.0
1954	6.98778e+02	1.95400e+03	0.0181696	700.0
1955	6.98777e+02	1.95500e+03	0.0181395	700.0
1956	6.98781e+02	1.95600e+03	0.0180886	700.0
1957	6.98794e+02	1.95700e+03	0.0180491	700.0
1958	6.98787e+02	1.95800e+03	0.0180172	700.0
1959	6.98805e+02	1.95900e+03	0.0179917	700.0
1960	6.98796e+02	1.96000e+03	0.0179867	700.0
1961	6.98790e+02	1.96100e+03	0.0179901	700.0
1962	6.98812e+02	1.96200e+03	0.018001	700.0
1963	6.98820e+02	1.96300e+03	0.0180162	700.0
1964	6.98818e+02	1.96400e+03	0.0180684	700.0
1965	6.98815e+02	1.96500e+03	0.0180982	700.0
1966	6.98834e+02	1.96600e+03	0.0181231	700.0
1967	6.98829e+02	1.96700e+03	0.0181483	700.0
1968	6.98832e+02	1.96800e+03	0.0181651	700.0
1969	6.98843e+02	1.96900e+03	0.0181824	700.0
1970	6.98850e+02	1.97000e+03	0.0181961	700.0
1971	6.98853e+02	1.97100e+03	0.0182072	700.0
1972	6.98848e+02	1.97200e+03	0.0182085	700.0
1973	6.98847e+02	1.97300e+03	0.0182097	700.0
1974	6.98854e+02	1.97400e+03	0.0182089	700.0
1975	6.98853e+02	1.97500e+03	0.0182068	700.0
1976	6.98857e+02	1.97600e+03	0.0181986	700.0
1977	6.98862e+02	1.97700e+03	0.0181957	700.0
1978	6.98857e+02	1.97800e+03	0.0181912	700.0
1979	6.98866e+02	1.97900e+03	0.0181847	700.0
1980	6.98870e+02	1.98000e+03	0.0181746	700.0
1981	6.98862e+02	1.98100e+03	0.0181598	700.0
1982	6.98868e+02	1.98200e+03	0.0181424	700.0
1983	6.98864e+02	1.98300e+03	0.0181239	700.0
1984	6.98871e+02	1.98400e+03	0.0180962	700.0
1985	6.98879e+02	1.98500e+03	0.0180775	700.0
1986	6.98879e+02	1.98600e+03	0.0180625	700.0
1987	6.98875e+02	1.98700e+03	0.0180494	700.0
1988	6.98877e+02	1.98800e+03	0.0180485	700.0
1989	6.98882e+02	1.98900e+03	0.0180453	700.0
1990	6.98889e+02	1.99000e+03	0.018043	700.0
1991	6.98887e+02	1.99100e+03	0.0180417	700.0
1992	6.98900e+02	1.99200e+03	0.0180453	700.0
1993	6.98900e+02	1.99300e+03	0.0180437	700.0
1994	6.98899e+02	1.99400e+03	0.0180392	700.0
1995	6.98899e+02	1.99500e+03	0.0180333	700.0
1996	6.98902e+02	1.99600e+03	0.0180194	700.0
1997	6.98904e+02	1.99700e+03	0.0180073	700.0
1998	6.98907e+02	1.99800e+03	0.0179952	700.0
1999	6.98919e+02	1.99900e+03	0.0179831	700.0
2000	6.98919e+02	2.00000e+03	0.0179752	700.0
2001	6.98922e+02	2.00100e+03	0.0179752	700.0
2002	6.98925e+02	2.00200e+03	0.0179784	700.0
2003	6.98934e+02	2.00300e+03	0.0179817	700.0
2004	6.98921e+02	2.00400e+03	0.0179914	700.0
2005	6.98924e+02	2.00500e+03	0.0179901	700.0
2006	6.98929e+02	2.00600e+03	0.0179853	700.0
2007	6.98940e+02	2.00700e+03	0.017979	700.0
2008	6.98938e+02	2.00800e+03	0.0179573	700.0
2009	6.98935e+02	2.00900e+03	0.017943	700.0
2010	6.98935e+02	2.01000e+03	0.0179302	700.0
2011	6.98931e+02	2.01100e+03	0.0179175	700.0
2012	6.98936e+02	2.01200e+03	0.017908	700.0
2013	6.98942e+02	2.01300e+03	0.0179002	700.0
2014	6.98940e+02	2.01400e+03	0.0178923	700.0
2015	6.98943e+02	2.01500e+03	0.0178836	700.0
2016	6.98946e+02	2.01600e+03	0.0178854	700.0
2017	6.98940e+02	2.01700e+03	0.0178918	700.0
2018	6.98945e+02	2.01800e+03	0.0179051	700.0
2019	6.98950e+02	2.01900e+03	0.0179217	700.0
2020	6.98951e+02	2.02000e+03	0.0179511	700.0
2021	6.98957e+02	2.02100e+03	0.017974	700.0
2022	6.98946e+02	2.02200e+03	0.0179959	700.0
2023	6.98949e+02	2.02300e+03	0.0180191	700.0
2024	6.98953e+02	2.02400e+03	0.0180459	700.0
2025	6.98951e+02	2.02500e+03	0.01807	700.0
2026	6.98951e+02	2.02600e+03	0.018091	700.0
2027	6.98951e+02	2.02700e+03	0.018109	700.0
2028	6.98952e+02	2.02800e+03	0.0181176	700.0
2029	6.98953e+02	2.02900e+03	0.0181235	700.0
2030	6.98946e+02	2.03000e+03	0.0181258	700.0
2031	6.98954e+02	2.03100e+03	0.0181256	700.0
2032	6.98952e+02	2.03200e+03	0.0181105	700.0
2033	6.98957e+02	2.03300e+03	0.0181023	700.0
2034	6.98950e+02	2.03400e+03	0.0180942	700.0
2035	6.98966e+02	2.03500e+03	0.0180854	700.0
2036	6.98953e+02	2.03600e+03	0.0180732	700.0
2037	6.98967e+02	2.03700e+03	0.0180603	700.0
2038	6.98959e+02	2.03800e+03	0.0180463	700.0
2039	6.98952e+02	2.03900e+03	0.0180315	700.0
2040	6.98959e+02	2.04000e+03	0.0180174	700.0
2041	6.98950e+02	2.04100e+03	0.018011	700.0
2042	6.98960e+02	2.04200e+03	0.0180124	700.0
2043	6.98960e+02	2.04300e+03	0.0180184	700.0
2044	6.98961e+02	2.04400e+03	0.0180393	700.0
2045	6.98956e+02	2.04500e+03	0.0180537	700.0
2046	6.98958e+02	2.04600e+03	0.0180659	700.0
2047	6.98956e+02	2.04700e+03	0.0180774	700.0
2048	6.98963e+02	2.04800e+03	0.0180941	700.0
2049	6.98965e+02	2.04900e+03	0.0181074	700.0
2050	6.98954e+02	2.05000e+03	0.0181209	700.0
2051	6.98959e+02	2.05100e+03	0.0181356	700.0
2052	6.98969e+02	2.05200e+03	0.0181441	700.0
2053	6.98963e+02	2.05300e+03	0.0181493	700.0
2054	6.98959e+02	2.05400e+03	0.0181467	700.0
2055	6.98959e+02	2.05500e+03	0.0181381	700.0
2056	6.98961e+02	2.05600e+03	0.0181137	700.0
2057	6.98965e+02	2.05700e+03	0.0180928	700.0
2058	6.98954e+02	2.05800e+03	0.0180738	700.0
2059	6.98956e+02	2.05900e+03	0.0180578	700.0
2060	6.98958e+02	2.06000e+03	0.0180404	700.0
2061	6.98965e+02	2.06100e+03	0.0180326	700.0
2062	6.98968e+02	2.06200e+03	0.0180289	700.0
2063	6.98959e+02	2.06300e+03	0.018027	700.0
2064	6.98963e+02	2.06400e+03	0.0180454	700.0
2065	6.98957e+02	2.06500e+03	0.0180537	700.0
2066	6.98959e+02	2.06600e+03	0.0180642	700.0
2067	6.98964e+02	2.06700e+03	0.0180777	700.0
2068	6.98960e+02	2.06800e+03	0.0180933	700.0
2069	6.98972e+02	2.06900e+03	0.018113	700.0
2070	6.98978e+02	2.07000e+03	0.0181353	700.0
2071	6.98958e+02	2.07100e+03	0.0181576	700.0
2072	6.98959e+02	2.07200e+03	0.0181818	700.0
2073	6.98956e+02	2.07300e+03	0.0181949	700.0
2074	6.98964e+02	2.07400e+03	0.0182019	700.0
2075	6.98956e+02	2.07500e+03	0.0182064	700.0
2076	6.98960e+02	2.07600e+03	0.0181928	700.0
2077	6.98963e+02	2.07700e+03	0.0181845	700.0
2078	6.98956e+02	2.07800e+03	0.0181743	700.0
2079	6.98970e+02	2.07900e+03	0.0181617	700.0
2080	6.98955e+02	2.08000e+03	0.0181369	700.0
2081	6.98957e+02	2.08100e+03	0.018114	700.0
2082	6.98964e+02	2.08200e+03	0.0180921	700.0
2083	6.98957e+02	2.08300e+03	0.0180719	700.0
2084	6.98952e+02	2.08400e+03	0.0180507	700.0
2085	6.98956e+02	2.08500e+03	0.0180341	700.0
2086	6.98961e+02	2.08600e+03	0.0180195	700.0
2087	6.98950e+02	2.08700e+03	0.0180058	700.0
2088	6.98954e+02	2.08800e+03	0.0179984	700.0
2089	6.98952e+02	2.08900e+03	0.0179826	700.0
2090	6.98952e+02	2.09000e+03	0.0179651	700.0
2091	6.98956e+02	2.09100e+03	0.0179479	700.0
2092	6.98953e+02	2.09200e+03	0.0179259	700.0
2093	6.98944e+02	2.09300e+03	0.0179095	700.0
2094	6.98941e+02	2.09400e+03	0.0178951	700.0
2095	6.98951e+02	2.09500e+03	0.0178816	700.0
2096	6.98956e+02	2.09600e+03	0.017875	700.0
2097	6.98948e+02	2.09700e+03	0.0178684	700.0
2098	6.98947e+02	2.09800e+03	0.0178657	700.0
2099	6.98946e+02	2.09900e+03	0.0178656	700.0
2100	6.98950e+02	2.10000e+03	0.0178771	700.0
2101	6.98956e+02	2.10100e+03	0.0178888	700.0
2102	6.98949e+02	2.10200e+03	0.0179005	700.0
2103	6.98944e+02	2.10300e+03	0.0179121	700.0
2104	6.98953e+02	2.10400e+03	0.017932	700.0
2105	6.98951e+02	2.10500e+03	0.0179445	700.0
2106	6.98943e+02	2.10600e+03	0.0179544	700.0
2107	6.98943e+02	2.10700e+03	0.0179635	700.0
2108	6.98952e+02	2.10800e+03	0.0179659	700.0
2109	6.98950e+02	2.10900e+03	0.0179724	700.0
2110	6.98946e+02	2.11000e+03	0.0179797	700.0
2111	6.98945e+02	2.11100e+03	0.0179871	700.0
2112	6.98944e+02	2.11200e+03	0.0179953	700.0
2113	6.98949e+02	2.11300e+03	0.0180017	700.0
2114	6.98940e+02	2.11400e+03	0.0180063	700.0
2115	6.98940e+02	2.11500e+03	0.0180093	700.0
2116	6.98937e+02	2.11600e+03	0.0180048	700.0
2117	6.98941e+02	2.11700e+03	0.0179989	700.0
2118	6.98935e+02	2.11800e+03	0.0179904	700.0
2119	6.98945e+02	2.11900e+03	0.0179799	700.0
2120	6.98938e+02	2.12000e+03	0.0179572	700.0
2121	6.98939e+02	2.12100e+03	0.0179387	700.0
2122	6.98934e+02	2.12200e+03	0.0179202	700.0
2123	6.98931e+02	2.12300e+03	0.0179012	700.0
2124	6.98934e+02	2.12400e+03	0.0178846	700.0
2125	6.98935e+02	2.12500e+03	0.0178748	700.0
2126	6.98931e+02	2.12600e+03	0.0178709	700.0
2127	6.98930e+02	2.12700e+03	0.0178708	700.0
2128	6.98924e+02	2.12800e+03	0.0178824	700.0
2129	6.98925e+02	2.12900e+03	0.017886	700.0
2130	6.98930e+02	2.13000e+03	0.0178862	700.0
2131	6.98928e+02	2.13100e+03	0.0178848	700.0
2132	6.98928e+02	2.13200e+03	0.017878	700.0
2133	6.98928e+02	2.13300e+03	0.0178694	700.0
2134	6.98928e+02	2.13400e+03	0.0178588	700.0
2135	6.98913e+02	2.13500e+03	0.0178472	700.0
2136	6.98924e+02	2.13600e+03	0.0178278	700.0
2137	6.98920e+02	2.13700e+03	0.0178132	700.0
2138	6.98918e+02	2.13800e+03	0.0177968	700.0
2139	6.98917e+02	2.13900e+03	0.0177778	700.0
2140	6.98917e+02	2.14000e+03	0.0177599	700.0
2141	6.98903e+02	2.14100e+03	0.0177423	700.0
2142	6.98919e+02	2.14200e+03	0.0177254	700.0
2143	6.98915e+02	2.14300e+03	0.0177093	700.0
2144	6.98900e+02	2.14400e+03	0.0176927	700.0
2145	6.98904e+02	2.14500e+03	0.0176779	700.0
2146	6.98899e+02	2.14600e+03	0.0176641	700.0
2147	6.98904e+02	2.14700e+03	0.0176508	700.0
2148	6.98906e+02	2.14800e+03	0.0176423	700.0
2149	6.98902e+02	2.14900e+03	0.017633	700.0
2150	6.98901e+02	2.15000e+03	0.0176251	700.0
2151	6.98912e+02	2.15100e+03	0.0176183	700.0
2152	6.98900e+02	2.15200e+03	0.0176179	700.0
2153	6.98902e+02	2.15300e+03	0.017618	700.0
2154	6.98904e+02	2.15400e+03	0.0176195	700.0
2155	6.98899e+02	2.15500e+03	0.0176222	700.0
2156	6.98900e+02	2.15600e+03	0.0176333	700.0
2157	6.98897e+02	2.15700e+03	0.0176447	700.0
2158	6.98895e+02	2.15800e+03	0.0176633	700.0
2159	6.98890e+02	2.15900e+03	0.0176888	700.0
2160	6.98892e+02	2.16000e+03	0.0177315	700.0
2161	6.98893e+02	2.16100e+03	0.0177707	700.0
2162	6.98896e+02	2.16200e+03	0.0178088	700.0
2163	6.98895e+02	2.16300e+03	0.0178462	700.0
2164	6.98897e+02	2.16400e+03	0.017891	700.0
2165	6.98890e+02	2.16500e+03	0.0179228	700.0
2166	6.98896e+02	2.16600e+03	0.0179479	700.0
2167	6.98890e+02	2.16700e+03	0.0179696	700.0
2168	6.98889e+02	2.16800e+03	0.0179667	700.0
2169	6.98877e+02	2.16900e+03	0.0179705	700.0
2170	6.98886e+02	2.17000e+03	0.0179723	700.0
2171	6.98883e+02	2.17100e+03	0.0179717	700.0
2172	6.98890e+02	2.17200e+03	0.0179584	700.0
2173	6.98885e+02	2.17300e+03	0.0179494	700.0
2174	6.98876e+02	2.17400e+03	0.0179419	700.0
2175	6.98876e+02	2.17500e+03	0.0179366	700.0
2176	6.98874e+02	2.17600e+03	0.017933	700.0
2177	6.98878e+02	2.17700e+03	0.0179291	700.0
2178	6.98872e+02	2.17800e+03	0.0179226	700.0
2179	6.98876e+02	2.17900e+03	0.0179137	700.0
2180	6.98878e+02	2.18000e+03	0.0179005	700.0
2181	6.98871e+02	2.18100e+03	0.0178806	700.0
2182	6.98867e+02	2.18200e+03	0.0178566	700.0
2183	6.98854e+02	2.18300e+03	0.0178307	700.0
2184	6.98871e+02	2.18400e+03	0.0177899	700.0
2185	6.98868e+02	2.18500e+03	0.0177635	700.0
2186	6.98870e+02	2.18600e+03	0.0177452	700.0
2187	6.98870e+02	2.18700e+03	0.0177305	700.0
2188	6.98871e+02	2.18800e+03	0.0177326	700.0
2189	6.98866e+02	2.18900e+03	0.0177322	700.0
2190	6.98870e+02	2.19000e+03	0.0177341	700.0
2191	6.98871e+02	2.19100e+03	0.0177381	700.0
2192	6.98866e+02	2.19200e+03	0.0177569	700.0
2193	6.98863e+02	2.19300e+03	0.0177721	700.0
2194	6.98867e+02	2.19400e+03	0.0177907	700.0
2195	6.98866e+02	2.19500e+03	0.0178117	700.0
2196	6.98856e+02	2.19600e+03	0.0178358	700.0
2197	6.98863e+02	2.19700e+03	0.0178552	700.0
2198	6.98862e+02	2.19800e+03	0.0178715	700.0
2199	6.98860e+02	2.19900e+03	0.0178859	700.0
2200	6.98867e+02	2.20000e+03	0.0178916	700.0
2201	6.98861e+02	2.20100e+03	0.0178963	700.0
2202	6.98860e+02	2.20200e+03	0.0178986	700.0
2203	6.98861e+02	2.20300e+03	0.0178993	700.0
2204	6.98862e+02	2.20400e+03	0.017884	700.0
2205	6.98854e+02	2.20500e+03	0.0178708	700.0
2206	6.98848e+02	2.20600e+03	0.0178574	700.0
2207	6.98857e+02	2.20700e+03	0.0178443	700.0
2208	6.98853e+02	2.20800e+03	0.0178359	700.0
2209	6.98845e+02	2.20900e+03	0.0178406	700.0
2210	6.98852e+02	2.21000e+03	0.0178534	700.0
2211	6.98845e+02	2.21100e+03	0.0178694	700.0
2212	6.98858e+02	2.21200e+03	0.0179069	700.0
2213	6.98869e+02	2.21300e+03	0.0179294	700.0
2214	6.98839e+02	2.21400e+03	0.0179445	700.0
2215	6.98841e+02	2.21500e+03	0.017954	700.0
2216	6.98848e+02	2.21600e+03	0.0179431	700.0
2217	6.98845e+02	2.21700e+03	0.017932	700.0
2218	6.98839e+02	2.21800e+03	0.0179177	700.0
2219	6.98841e+02	2.21900e+03	0.0179013	700.0
2220	6.98841e+02	2.22000e+03	0.0178644	700.0
2221	6.98846e+02	2.22100e+03	0.0178416	700.0
2222	6.98844e+02	2.22200e+03	0.0178228	700.0
2223	6.98841e+02	2.22300e+03	0.0178054	700.0
2224	6.98833e+02	2.22400e+03	0.017799	700.0
2225	6.98836e+02	2.22500e+03	0.0177899	700.0
2226	6.98835e+02	2.22600e+03	0.0177818	700.0
2227	6.98830e+02	2.22700e+03	0.0177749	700.0
2228	6.98831e+02	2.22800e+03	0.0177734	700.0
2229	6.98830e+02	2.22900e+03	0.0177688	700.0
2230	6.98827e+02	2.23000e+03	0.017763	700.0
2231	6.98831e+02	2.23100e+03	0.0177564	700.0
2232	6.98828e+02	2.23200e+03	0.0177471	700.0
2233	6.98824e+02	2.23300e+03	0.0177403	700.0
2234	6.98819e+02	2.23400e+03	0.0177354	700.0
2235	6.98821e+02	2.23500e+03	0.0177302	700.0
2236	6.98819e+02	2.23600e+03	0.01772	700.0
2237	6.98812e+02	2.23700e+03	0.0177082	700.0
2238	6.98811e+02	2.23800e+03	0.0176939	700.0
2239	6.98816e+02	2.23900e+03	0.0176778	700.0
2240	6.98809e+02	2.24000e+03	0.0176534	700.0
2241	6.98803e+02	2.24100e+03	0.0176309	700.0
2242	6.98818e+02	2.24200e+03	0.0176091	700.0
2243	6.98818e+02	2.24300e+03	0.0175886	700.0
2244	6.98811e+02	2.24400e+03	0.0175737	700.0
2245	6.98812e+02	2.24500e+03	0.0175642	700.0
2246	6.98815e+02	2.24600e+03	0.0175575	700.0
2247	6.98816e+02	2.24700e+03	0.0175521	700.0
2248	6.98817e+02	2.24800e+03	0.0175633	700.0
2249	6.98808e+02	2.24900e+03	0.017567	700.0
2250	6.98803e+02	2.25000e+03	0.0175704	700.0
2251	6.98807e+02	2.25100e+03	0.0175745	700.0
2252	6.98803e+02	2.25200e+03	0.0175807	700.0
2253	6.98801e+02	2.25300e+03	0.017587	700.0
2254	6.98801e+02	2.25400e+03	0.017593	700.0
2255	6.98806e+02	2.25500e+03	0.0175987	700.0
2256	6.98799e+02	2.25600e+03	0.0176043	700.0
2257	6.98794e+02	2.25700e+03	0.0176073	700.0
2258	6.98797e+02	2.25800e+03	0.0176086	700.0
2259	6.98803e+02	2.25900e+03	0.0176089	700.0
2260	6.98794e+02	2.26000e+03	0.0176027	700.0
2261	6.98795e+02	2.26100e+03	0.0175986	700.0
2262	6.98800e+02	2.26200e+03	0.0175945	700.0
2263	6.98793e+02	2.26300e+03	0.0175901	700.0
2264	6.98787e+02	2.26400e+03	0.0175842	700.0
2265	6.98792e+02	2.26500e+03	0.0175813	700.0
2266	6.98782e+02	2.26600e+03	0.017584	700.0
2267	6.98793e+02	2.26700e+03	0.0175912	700.0
2268	6.98788e+02	2.26800e+03	0.0176115	700.0
2269	6.98784e+02	2.26900e+03	0.0176317	700.0
2270	6.98788e+02	2.27000e+03	0.017652	700.0
2271	6.98796e+02	2.27100e+03	0.0176722	700.0
2272	6.98794e+02	2.27200e+03	0.0177022	700.0
2273	6.98785e+02	2.27300e+03	0.0177219	700.0
2274	6.98775e+02	2.27400e+03	0.0177374	700.0
2275	6.98784e+02	2.27500e+03	0.017751	700.0
2276	6.98786e+02	2.27600e+03	0.0177501	700.0
2277	6.98777e+02	2.27700e+03	0.0177531	700.0
2278	6.98780e+02	2.27800e+03	0.0177547	700.0
2279	6.98784e+02	2.27900e+03	0.0177546	700.0
2280	6.98780e+02	2.28000e+03	0.017746	700.0
2281	6.98786e+02	2.28100e+03	0.0177393	700.0
2282	6.98784e+02	2.28200e+03	0.0177321	700.0
2283	6.98774e+02	2.28300e+03	0.0177242	700.0
2284	6.98784e+02	2.28400e+03	0.0177126	700.0
2285	6.98777e+02	2.28500e+03	0.0177037	700.0
2286	6.98780e+02	2.28600e+03	0.0176955	700.0
2287	6.98773e+02	2.28700e+03	0.0176876	700.0
2288	6.98771e+02	2.28800e+03	0.0176807	700.0
2289	6.98778e+02	2.28900e+03	0.0176728	700.0
2290	6.98771e+02	2.29000e+03	0.0176642	700.0
2291	6.98779e+02	2.29100e+03	0.0176554	700.0
2292	6.98782e+02	2.29200e+03	0.0176445	700.0
2293	6.98780e+02	2.29300e+03	0.017634	700.0
2294	6.98773e+02	2.29400e+03	0.0176235	700.0
2295	6.98767e+02	2.29500e+03	0.017613	700.0
2296	6.98773e+02	2.29600e+03	0.0176028	700.0
2297	6.98778e+02	2.29700e+03	0.0175942	700.0
2298	6.98771e+02	2.29800e+03	0.0175867	700.0
2299	6.98777e+02	2.29900e+03	0.0175799	700.0
2300	6.98764e+02	2.30000e+03	0.0175834	700.0
2301	6.98769e+02	2.30100e+03	0.0175906	700.0
2302	6.98777e+02	2.30200e+03	0.0176041	700.0
2303	6.98778e+02	2.30300e+03	0.0176218	700.0
2304	6.98765e+02	2.30400e+03	0.0176528	700.0
2305	6.98766e+02	2.30500e+03	0.0176755	700.0
2306	6.98779e+02	2.30600e+03	0.0176955	700.0
2307	6.98773e+02	2.30700e+03	0.0177142	700.0
2308	6.98767e+02	2.30800e+03	0.0177312	700.0
2309	6.98773e+02	2.30900e+03	0.01775	700.0
2310	6.98777e+02	2.31000e+03	0.0177713	700.0
2311	6.98779e+02	2.31100e+03	0.0177934	700.0
2312	6.98775e+02	2.31200e+03	0.0178117	700.0
2313	6.98771e+02	2.31300e+03	0.0178286	700.0
2314	6.98771e+02	2.31400e+03	0.0178425	700.0
2315	6.98778e+02	2.31500e+03	0.0178541	700.0
2316	6.98775e+02	2.31600e+03	0.0178552	700.0
2317	6.98772e+02	2.31700e+03	0.0178548	700.0
2318	6.98767e+02	2.31800e+03	0.0178511	700.0
2319	6.98774e+02	2.31900e+03	0.0178451	700.0
2320	6.98764e+02	2.32000e+03	0.0178241	700.0
2321	6.98762e+02	2.32100e+03	0.0178093	700.0
2322	6.98776e+02	2.32200e+03	0.0177948	700.0
2323	6.98761e+02	2.32300e+03	0.0177799	700.0
2324	6.98758e+02	2.32400e+03	0.0177628	700.0
2325	6.98765e+02	2.32500e+03	0.0177483	700.0
2326	6.98767e+02	2.32600e+03	0.0177382	700.0
2327	6.98761e+02	2.32700e+03	0.017732	700.0
2328	6.98764e+02	2.32800e+03	0.0177339	700.0
2329	6.98755e+02	2.32900e+03	0.0177353	700.0
2330	6.98759e+02	2.33000e+03	0.0177372	700.0
2331	6.98754e+02	2.33100e+03	0.0177391	700.0
2332	6.98759e+02	2.33200e+03	0.0177425	700.0
2333	6.98770e+02	2.33300e+03	0.0177375	700.0
2334	6.98755e+02	2.33400e+03	0.0177299	700.0
2335	6.98753e+02	2.33500e+03	0.0177213	700.0
2336	6.98756e+02	2.33600e+03	0.0177027	700.0
2337	6.98755e+02	2.33700e+03	0.0176953	700.0
2338	6.98758e+02	2.33800e+03	0.0176909	700.0
2339	6.98752e+02	2.33900e+03	0.0176849	700.0
2340	6.98748e+02	2.34000e+03	0.017679	700.0
2341	6.98752e+02	2.34100e+03	0.0176676	700.0
2342	6.98746e+02	2.34200e+03	0.017655	700.0
2343	6.98740e+02	2.34300e+03	0.0176422	700.0
2344	6.98747e+02	2.34400e+03	0.0176224	700.0
2345	6.98747e+02	2.34500e+03	0.0176111	700.0
2346	6.98746e+02	2.34600e+03	0.0176036	700.0
2347	6.98748e+02	2.34700e+03	0.017598	700.0
2348	6.98750e+02	2.34800e+03	0.0176056	700.0
2349	6.98749e+02	2.34900e+03	0.0176097	700.0
2350	6.98751e+02	2.35000e+03	0.0176145	700.0
2351	6.98747e+02	2.35100e+03	0.0176201	700.0
2352	6.98756e+02	2.35200e+03	0.0176298	700.0
2353	6.98749e+02	2.35300e+03	0.0176347	700.0
2354	6.98742e+02	2.35400e+03	0.0176367	700.0
2355	6.98745e+02	2.35500e+03	0.017637	700.0
2356	6.98746e+02	2.35600e+03	0.0176274	700.0
2357	6.98752e+02	2.35700e+03	0.017618	700.0
2358	6.98754e+02	2.35800e+03	0.0176067	700.0
2359	6.98749e+02	2.35900e+03	0.0175942	700.0
2360	6.98758e+02	2.36000e+03	0.0175794	700.0
2361	6.98749e+02	2.36100e+03	0.0175719	700.0
2362	6.98750e+02	2.36200e+03	0.0175658	700.0
2363	6.98753e+02	2.36300e+03	0.0175596	700.0
2364	6.98757e+02	2.36400e+03	0.0175612	700.0
2365	6.98749e+02	2.36500e+03	0.017557	700.0
2366	6.98741e+02	2.36600e+03	0.0175509	700.0
2367	6.98745e+02	2.36700e+03	0.0175445	700.0
2368	6.98752e+02	2.36800e+03	0.0175354	700.0
2369	6.98740e+02	2.36900e+03	0.0175303	700.0
2370	6.98753e+02	2.37000e+03	0.0175279	700.0
2371	6.98747e+02	2.37100e+03	0.0175271	700.0
2372	6.98747e+02	2.37200e+03	0.0175359	700.0
2373	6.98737e+02	2.37300e+03	0.0175447	700.0
2374	6.98732e+02	2.37400e+03	0.0175551	700.0
2375	6.98744e+02	2.37500e+03	0.0175668	700.0
2376	6.98743e+02	2.37600e+03	0.0175859	700.0
2377	6.98741e+02	2.37700e+03	0.0176009	700.0
2378	6.98738e+02	2.37800e+03	0.0176163	700.0
2379	6.98744e+02	2.37900e+03	0.0176319	700.0
2380	6.98735e+02	2.38000e+03	0.017638	700.0
2381	6.98738e+02	2.38100e+03	0.0176408	700.0
2382	6.98736e+02	2.38200e+03	0.0176391	700.0
2383	6.98728e+02	2.38300e+03	0.0176342	700.0
2384	6.98742e+02	2.38400e+03	0.0176126	700.0
2385	6.98740e+02	2.38500e+03	0.0175957	700.0
2386	6.98738e+02	2.38600e+03	0.0175786	700.0
2387	6.98733e+02	2.38700e+03	0.0175607	700.0
2388	6.98730e+02	2.38800e+03	0.0175386	700.0
2389	6.98740e+02	2.38900e+03	0.0175218	700.0
2390	6.98736e+02	2.39000e+03	0.0175075	700.0
2391	6.98735e+02	2.39100e+03	0.0174944	700.0
2392	6.98728e+02	2.39200e+03	0.0174896	700.0
2393	6.98733e+02	2.39300e+03	0.0174828	700.0
2394	6.98737e+02	2.39400e+03	0.0174769	700.0
2395	6.98732e+02	2.39500e+03	0.0174717	700.0
2396	6.98728e+02	2.39600e+03	0.0174711	700.0
2397	6.98731e+02	2.39700e+03	0.0174681	700.0
2398	6.98729e+02	2.39800e+03	0.017463	700.0
2399	6.98716e+02	2.39900e+03	0.017455	700.0
2400	6.98719e+02	2.40000e+03	0.0174375	700.0
2401	6.98722e+02	2.40100e+03	0.0174202	700.0
2402	6.98721e+02	2.40200e+03	0.0174056	700.0
2403	6.98714e+02	2.40300e+03	0.0173933	700.0
2404	6.98731e+02	2.40400e+03	0.0173724	700.0
2405	6.98725e+02	2.40500e+03	0.0173573	700.0
2406	6.98726e+02	2.40600e+03	0.0173428	700.0
2407	6.98726e+02	2.40700e+03	0.017328	700.0
2408	6.98721e+02	2.40800e+03	0.0173189	700.0
2409	6.98715e+02	2.40900e+03	0.0173064	700.0
2410	6.98719e+02	2.41000e+03	0.0172946	700.0
2411	6.98722e+02	2.41100e+03	0.0172839	700.0
2412	6.98726e+02	2.41200e+03	0.0172781	700.0
2413	6.98728e+02	2.41300e+03	0.0172775	700.0
2414	6.98722e+02	2.41400e+03	0.0172817	700.0
2415	6.98722e+02	2.41500e+03	0.017289	700.0
2416	6.98734e+02	2.41600e+03	0.0173159	700.0
2417	6.98726e+02	2.41700e+03	0.0173379	700.0
2418	6.98720e+02	2.41800e+03	0.0173617	700.0
2419	6.98722e+02	2.41900e+03	0.0173884	700.0
2420	6.98722e+02	2.42000e+03	0.0174305	700.0
2421	6.98722e+02	2.42100e+03	0.0174702	700.0
2422	6.98717e+02	2.42200e+03	0.0175101	700.0
2423	6.98716e+02	2.42300e+03	0.0175492	700.0
2424	6.98717e+02	2.42400e+03	0.0175858	700.0
2425	6.98719e+02	2.42500e+03	0.0176123	700.0
2426	6.98716e+02	2.42600e+03	0.0176314	700.0
2427	6.98719e+02	2.42700e+03	0.0176461	700.0
2428	6.98716e+02	2.42800e+03	0.017636	700.0
2429	6.98713e+02	2.42900e+03	0.0176349	700.0
2430	6.98712e+02	2.43000e+03	0.0176342	700.0
2431	6.98718e+02	2.43100e+03	0.017633	700.0
2432	6.98709e+02	2.43200e+03	0.017629	700.0
2433	6.98703e+02	2.43300e+03	0.0176309	700.0
2434	6.98712e+02	2.43400e+03	0.0176356	700.0
2435	6.98708e+02	2.43500e+03	0.0176414	700.0
2436	6.98720e+02	2.43600e+03	0.0176525	700.0
2437	6.98710e+02	2.43700e+03	0.017653	700.0
2438	6.98708e+02	2.43800e+03	0.0176442	700.0
2439	6.98708e+02	2.43900e+03	0.01763	700.0
2440	6.98716e+02	2.44000e+03	0.0175933	700.0
2441	6.98711e+02	2.44100e+03	0.0175587	700.0
2442	6.98709e+02	2.44200e+03	0.0175229	700.0
2443	6.98716e+02	2.44300e+03	0.0174864	700.0
2444	6.98705e+02	2.44400e+03	0.0174402	700.0
2445	6.98705e+02	2.44500e+03	0.0174105	700.0
2446	6.98714e+02	2.44600e+03	0.0173898	700.0
2447	6.98703e+02	2.44700e+03	0.0173742	700.0
2448	6.98715e+02	2.44800e+03	0.0173911	700.0
2449	6.98709e+02	2.44900e+03	0.0174014	700.0
2450	6.98710e+02	2.45000e+03	0.0174143	700.0
2451	6.98712e+02	2.45100e+03	0.0174298	700.0
2452	6.98711e+02	2.45200e+03	0.0174615	700.0
2453	6.98714e+02	2.45300e+03	0.0174824	700.0
2454	6.98708e+02	2.45400e+03	0.0174998	700.0
2455	6.98709e+02	2.45500e+03	0.0175158	700.0
2456	6.98702e+02	2.45600e+03	0.0175219	700.0
2457	6.98711e+02	2.45700e+03	0.0175285	700.0
2458	6.98719e+02	2.45800e+03	0.0175334	700.0
2459	6.98702e+02	2.45900e+03	0.0175371	700.0
2460	6.98696e+02	2.46000e+03	0.0175321	700.0
2461	6.98704e+02	2.46100e+03	0.0175312	700.0
2462	6.98705e+02	2.46200e+03	0.0175308	700.0
2463	6.98704e+02	2.46300e+03	0.0175302	700.0
2464	6.98700e+02	2.46400e+03	0.0175279	700.0
2465	6.98712e+02	2.46500e+03	0.0175245	700.0
2466	6.98708e+02	2.46600e+03	0.0175207	700.0
2467	6.98704e+02	2.46700e+03	0.0175182	700.0
2468	6.98693e+02	2.46800e+03	0.0175169	700.0
2469	6.98700e+02	2.46900e+03	0.0175185	700.0
2470	6.98700e+02	2.47000e+03	0.0175233	700.0
2471	6.98695e+02	2.47100e+03	0.0175295	700.0
2472	6.98703e+02	2.47200e+03	0.0175417	700.0
2473	6.98706e+02	2.47300e+03	0.0175478	700.0
2474	6.98695e+02	2.47400e+03	0.0175476	700.0
2475	6.98698e+02	2.47500e+03	0.0175433	700.0
2476	6.98693e+02	2.47600e+03	0.0175325	700.0
2477	6.98706e+02	2.47700e+03	0.0175242	700.0
2478	6.98707e+02	2.47800e+03	0.0175191	700.0
2479	6.98700e+02	2.47900e+03	0.0175173	700.0
2480	6.98707e+02	2.48000e+03	0.0175165	700.0
2481	6.98708e+02	2.48100e+03	0.0175192	700.0
2482	6.98698e+02	2.48200e+03	0.0175242	700.0
2483	6.98702e+02	2.48300e+03	0.0175311	700.0
2484	6.98691e+02	2.48400e+03	0.0175551	700.0
2485	6.98709e+02	2.48500e+03	0.0175752	700.0
2486	6.98699e+02	2.48600e+03	0.0175988	700.0
2487	6.98705e+02	2.48700e+03	0.0176259	700.0
2488	6.98709e+02	2.48800e+03	0.0176608	700.0
2489	6.98702e+02	2.48900e+03	0.017689	700.0
2490	6.98697e+02	2.49000e+03	0.0177107	700.0
2491	6.98695e+02	2.49100e+03	0.0177273	700.0
2492	6.98704e+02	2.49200e+03	0.0177329	700.0
2493	6.98692e+02	2.49300e+03	0.017737	700.0
2494	6.98703e+02	2.49400e+03	0.017738	700.0
2495	6.98692e+02	2.49500e+03	0.0177369	700.0
2496	6.98698e+02	2.49600e+03	0.0177163	700.0
2497	6.98695e+02	2.49700e+03	0.0177031	700.0
2498	6.98697e+02	2.49800e+03	0.0176894	700.0
2499	6.98690e+02	2.49900e+03	0.0176741	700.0
2500	6.98695e+02	2.50000e+03	0.0176531	700.0
2501	6.98698e+02	2.50100e+03	0.0176326	700.0
2502	6.98693e+02	2.50200e+03	0.0176116	700.0
2503	6.98691e+02	2.50300e+03	0.0175901	700.0
2504	6.98691e+02	2.50400e+03	0.0175638	700.0
2505	6.98689e+02	2.50500e+03	0.0175396	700.0
2506	6.98681e+02	2.50600e+03	0.0175153	700.0
2507	6.98682e+02	2.50700e+03	0.0174905	700.0
2508	6.98693e+02	2.50800e+03	0.0174649	700.0
2509	6.98692e+02	2.50900e+03	0.01744	700.0
2510	6.98689e+02	2.51000e+03	0.0174168	700.0
2511	6.98684e+02	2.51100e+03	0.017395	700.0
2512	6.98694e+02	2.51200e+03	0.0173875	700.0
2513	6.98687e+02	2.51300e+03	0.0173874	700.0
2514	6.98682e+02	2.51400e+03	0.0173933	700.0
2515	6.98689e+02	2.51500e+03	0.0174028	700.0
2516	6.98689e+02	2.51600e+03	0.0174354	700.0
2517	6.98679e+02	2.51700e+03	0.017454	700.0
2518	6.98696e+02	2.51800e+03	0.0174714	700.0
2519	6.98688e+02	2.51900e+03	0.0174906	700.0
2520	6.98687e+02	2.52000e+03	0.0175152	700.0
2521	6.98690e+02	2.52100e+03	0.0175425	700.0
2522	6.98688e+02	2.52200e+03	0.017569	700.0
2523	6.98690e+02	2.52300e+03	0.0175943	700.0
2524	6.98688e+02	2.52400e+03	0.017616	700.0
2525	6.98682e+02	2.52500e+03	0.0176247	700.0
2526	6.98683e+02	2.52600e+03	0.0176255	700.0
2527	6.98685e+02	2.52700e+03	0.0176225	700.0
2528	6.98683e+02	2.52800e+03	0.017591	700.0
2529	6.98682e+02	2.52900e+03	0.017571	700.0
2530	6.98681e+02	2.53000e+03	0.0175515	700.0
2531	6.98680e+02	2.53100e+03	0.017531	700.0
2532	6.98674e+02	2.53200e+03	0.0175045	700.0
2533	6.98682e+02	2.53300e+03	0.0174816	700.0
2534	6.98689e+02	2.53400e+03	0.0174629	700.0
2535	6.98682e+02	2.53500e+03	0.0174475	700.0
2536	6.98674e+02	2.53600e+03	0.0174375	700.0
2537	6.98684e+02	2.53700e+03	0.0174307	700.0
2538	6.98682e+02	2.53800e+03	0.0174287	700.0
2539	6.98680e+02	2.53900e+03	0.0174288	700.0
2540	6.98677e+02	2.54000e+03	0.017441	700.0
2541	6.98673e+02	2.54100e+03	0.0174472	700.0
2542	6.98672e+02	2.54200e+03	0.0174526	700.0
2543	6.98679e+02	2.54300e+03	0.0174583	700.0
2544	6.98671e+02	2.54400e+03	0.0174667	700.0
2545	6.98677e+02	2.54500e+03	0.0174755	700.0
2546	6.98676e+02	2.54600e+03	0.0174854	700.0
2547	6.98669e+02	2.54700e+03	0.0174961	700.0
2548	6.98691e+02	2.54800e+03	0.0175097	700.0
2549	6.98684e+02	2.54900e+03	0.0175212	700.0
2550	6.98673e+02	2.55000e+03	0.0175309	700.0
2551	6.98674e+02	2.55100e+03	0.0175395	700.0
2552	6.98682e+02	2.55200e+03	0.0175418	700.0
2553	6.98672e+02	2.55300e+03	0.0175418	700.0
2554	6.98666e+02	2.55400e+03	0.0175392	700.0
2555	6.98659e+02	2.55500e+03	0.017535	700.0
2556	6.98666e+02	2.55600e+03	0.0175191	700.0
2557	6.98669e+02	2.55700e+03	0.0175077	700.0
2558	6.98664e+02	2.55800e+03	0.0174963	700.0
2559	6.98662e+02	2.55900e+03	0.0174844	700.0
2560	6.98666e+02	2.56000e+03	0.0174709	700.0
2561	6.98659e+02	2.56100e+03	0.0174594	700.0
2562	6.98664e+02	2.56200e+03	0.0174493	700.0
2563	6.98668e+02	2.56300e+03	0.0174403	700.0
2564	6.98665e+02	2.56400e+03	0.0174369	700.0
2565	6.98664e+02	2.56500e+03	0.0174343	700.0
2566	6.98667e+02	2.56600e+03	0.0174336	700.0
2567	6.98668e+02	2.56700e+03	0.0174343	700.0
2568	6.98669e+02	2.56800e+03	0.017444	700.0
2569	6.98667e+02	2.56900e+03	0.0174512	700.0
2570	6.98660e+02	2.57000e+03	0.017459	700.0
2571	6.98657e+02	2.57100e+03	0.0174676	700.0
2572	6.98664e+02	2.57200e+03	0.0174808	700.0
2573	6.98667e+02	2.57300e+03	0.0174923	700.0
2574	6.98666e+02	2.57400e+03	0.0175036	700.0
2575	6.98670e+02	2.57500e+03	0.0175148	700.0
2576	6.98661e+02	2.57600e+03	0.0175192	700.0
2577	6.98654e+02	2.57700e+03	0.0175185	700.0
2578	6.98655e+02	2.57800e+03	0.0175154	700.0
2579	6.98657e+02	2.57900e+03	0.0175109	700.0
2580	6.98655e+02	2.58000e+03	0.0174921	700.0
2581	6.98652e+02	2.58100e+03	0.0174789	700.0
2582	6.98655e+02	2.58200e+03	0.0174655	700.0
2583	6.98662e+02	2.58300e+03	0.0174511	700.0
2584	6.98650e+02	2.58400e+03	0.0174322	700.0
2585	6.98657e+02	2.58500e+03	0.0174143	700.0
2586	6.98663e+02	2.58600e+03	0.0173996	700.0
2587	6.98665e+02	2.58700e+03	0.0173881	700.0
2588	6.98653e+02	2.58800e+03	0.0173869	700.0
2589	6.98656e+02	2.58900e+03	0.0173928	700.0
2590	6.98663e+02	2.59000e+03	0.0174035	700.0
2591	6.98659e+02	2.59100e+03	0.0174164	700.0
2592	6.98650e+02	2.59200e+03	0.017451	700.0
2593	6.98658e+02	2.59300e+03	0.0174732	700.0
2594	6.98653e+02	2.59400e+03	0.017492	700.0
2595	6.98663e+02	2.59500e+03	0.0175096	700.0
2596	6.98656e+02	2.59600e+03	0.0175189	700.0
2597	6.98649e+02	2.59700e+03	0.0175268	700.0
2598	6.98656e+02	2.59800e+03	0.0175311	700.0
2599	6.98654e+02	2.59900e+03	0.0175327	700.0
2600	6.98647e+02	2.60000e+03	0.0175192	700.0
2601	6.98652e+02	2.60100e+03	0.0175092	700.0
2602	6.98654e+02	2.60200e+03	0.0174988	700.0
2603	6.98658e+02	2.60300e+03	0.0174878	700.0
2604	6.98648e+02	2.60400e+03	0.017468	700.0
2605	6.98661e+02	2.60500e+03	0.0174499	700.0
2606	6.98648e+02	2.60600e+03	0.0174317	700.0
2607	6.98653e+02	2.60700e+03	0.0174141	700.0
2608	6.98647e+02	2.60800e+03	0.017392	700.0
2609	6.98646e+02	2.60900e+03	0.0173694	700.0
2610	6.98660e+02	2.61000e+03	0.0173485	700.0
2611	6.98656e+02	2.61100e+03	0.017329	700.0
2612	6.98639e+02	2.61200e+03	0.0173163	700.0
2613	6.98648e+02	2.61300e+03	0.0173108	700.0
2614	6.98648e+02	2.61400e+03	0.0173096	700.0
2615	6.98643e+02	2.61500e+03	0.0173104	700.0
2616	6.98653e+02	2.61600e+03	0.0173286	700.0
2617	6.98642e+02	2.61700e+03	0.0173374	700.0
2618	6.98643e+02	2.61800e+03	0.0173441	700.0
2619	6.98657e+02	2.61900e+03	0.0173504	700.0
2620	6.98646e+02	2.62000e+03	0.0173539	700.0
2621	6.98642e+02	2.62100e+03	0.017357	700.0
2622	6.98642e+02	2.62200e+03	0.0173587	700.0
2623	6.98649e+02	2.62300e+03	0.0173592	700.0
2624	6.98651e+02	2.62400e+03	0.017354	700.0
2625	6.98644e+02	2.62500e+03	0.0173495	700.0
2626	6.98646e+02	2.62600e+03	0.0173445	700.0
2627	6.98646e+02	2.62700e+03	0.0173392	700.0
2628	6.98646e+02	2.62800e+03	0.0173319	700.0
2629	6.98636e+02	2.62900e+03	0.0173285	700.0
2630	6.98642e+02	2.63000e+03	0.0173277	700.0
2631	6.98648e+02	2.63100e+03	0.0173286	700.0
2632	6.98642e+02	2.63200e+03	0.017338	700.0
2633	6.98639e+02	2.63300e+03	0.0173459	700.0
2634	6.98641e+02	2.63400e+03	0.0173539	700.0
2635	6.98640e+02	2.63500e+03	0.0173622	700.0
2636	6.98638e+02	2.63600e+03	0.0173766	700.0
2637	6.98640e+02	2.63700e+03	0.0173915	700.0
2638	6.98637e+02	2.63800e+03	0.0174081	700.0
2639	6.98642e+02	2.63900e+03	0.0174248	700.0
2640	6.98640e+02	2.64000e+03	0.0174414	700.0
2641	6.98643e+02	2.64100e+03	0.0174546	700.0
2642	6.98640e+02	2.64200e+03	0.0174645	700.0
2643	6.98649e+02	2.64300e+03	0.0174719	700.0
2644	6.98651e+02	2.64400e+03	0.0174665	700.0
2645	6.98647e+02	2.64500e+03	0.0174593	700.0
2646	6.98645e+02	2.64600e+03	0.0174479	700.0
2647	6.98648e+02	2.64700e+03	0.0174332	700.0
2648	6.98648e+02	2.64800e+03	0.0173999	700.0
2649	6.98643e+02	2.64900e+03	0.0173733	700.0
2650	6.98637e+02	2.65000e+03	0.0173473	700.0
2651	6.98639e+02	2.65100e+03	0.0173213	700.0
2652	6.98642e+02	2.65200e+03	0.0172959	700.0
2653	6.98643e+02	2.65300e+03	0.0172775	700.0
2654	6.98641e+02	2.65400e+03	0.0172665	700.0
2655	6.98652e+02	2.65500e+03	0.0172617	700.0
2656	6.98644e+02	2.65600e+03	0.0172818	700.0
2657	6.98642e+02	2.65700e+03	0.0172971	700.0
2658	6.98648e+02	2.65800e+03	0.0173106	700.0
2659	6.98648e+02	2.65900e+03	0.0173226	700.0
2660	6.98649e+02	2.66000e+03	0.0173447	700.0
2661	6.98642e+02	2.66100e+03	0.017356	700.0
2662	6.98643e+02	2.66200e+03	0.0173636	700.0
2663	6.98638e+02	2.66300e+03	0.0173699	700.0
2664	6.98644e+02	2.66400e+03	0.0173596	700.0
2665	6.98646e+02	2.66500e+03	0.0173556	700.0
2666	6.98640e+02	2.66600e+03	0.0173508	700.0
2667	6.98645e+02	2.66700e+03	0.0173444	700.0
2668	6.98640e+02	2.66800e+03	0.0173336	700.0
2669	6.98644e+02	2.66900e+03	0.0173275	700.0
2670	6.98649e+02	2.67000e+03	0.0173251	700.0
2671	6.98652e+02	2.67100e+03	0.0173234	700.0
2672	6.98650e+02	2.67200e+03	0.017324	700.0
2673	6.98649e+02	2.67300e+03	0.0173256	700.0
2674	6.98641e+02	2.67400e+03	0.0173279	700.0
2675	6.98653e+02	2.67500e+03	0.0173308	700.0
2676	6.98645e+02	2.67600e+03	0.0173403	700.0
2677	6.98638e+02	2.67700e+03	0.0173484	700.0
2678	6.98647e+02	2.67800e+03	0.0173579	700.0
2679	6.98649e+02	2.67900e+03	0.0173687	700.0
2680	6.98652e+02	2.68000e+03	0.0173898	700.0
2681	6.98650e+02	2.68100e+03	0.0174144	700.0
2682	6.98639e+02	2.68200e+03	0.0174415	700.0
2683	6.98640e+02	2.68300e+03	0.0174692	700.0
2684	6.98644e+02	2.68400e+03	0.017505	700.0
2685	6.98642e+02	2.68500e+03	0.0175309	700.0
2686	6.98639e+02	2.68600e+03	0.017552	700.0
2687	6.98651e+02	2.68700e+03	0.0175705	700.0
2688	6.98647e+02	2.68800e+03	0.017573	700.0
2689	6.98635e+02	2.68900e+03	0.0175777	700.0
2690	6.98645e+02	2.69000e+03	0.0175779	700.0
2691	6.98643e+02	2.69100e+03	0.0175729	700.0
2692	6.98638e+02	2.69200e+03	0.0175462	700.0
2693	6.98637e+02	2.69300e+03	0.0175204	700.0
2694	6.98638e+02	2.69400e+03	0.0174906	700.0
2695	6.98636e+02	2.69500e+03	0.0174591	700.0
2696	6.98644e+02	2.69600e+03	0.0174137	700.0
2697	6.98637e+02	2.69700e+03	0.0173804	700.0
2698	6.98641e+02	2.69800e+03	0.0173521	700.0
2699	6.98643e+02	2.69900e+03	0.0173261	700.0
2700	6.98638e+02	2.70000e+03	0.0173131	700.0
2701	6.98631e+02	2.70100e+03	0.0172948	700.0
2702	6.98635e+02	2.70200e+03	0.0172752	700.0
2703	6.98632e+02	2.70300e+03	0.0172564	700.0
2704	6.98646e+02	2.70400e+03	0.017249	700.0
2705	6.98630e+02	2.70500e+03	0.0172459	700.0
2706	6.98639e+02	2.70600e+03	0.0172502	700.0
2707	6.98631e+02	2.70700e+03	0.0172595	700.0
2708	6.98636e+02	2.70800e+03	0.0172859	700.0
2709	6.98636e+02	2.70900e+03	0.0173044	700.0
2710	6.98638e+02	2.71000e+03	0.0173201	700.0
2711	6.98637e+02	2.71100e+03	0.0173337	700.0
2712	6.98634e+02	2.71200e+03	0.0173468	700.0
2713	6.98646e+02	2.71300e+03	0.01736	700.0
2714	6.98637e+02	2.71400e+03	0.0173675	700.0
2715	6.98654e+02	2.71500e+03	0.0173684	700.0
2716	6.98622e+02	2.71600e+03	0.0173644	700.0
2717	6.98630e+02	2.71700e+03	0.0173582	700.0
2718	6.98641e+02	2.71800e+03	0.0173522	700.0
2719	6.98643e+02	2.71900e+03	0.0173472	700.0
2720	6.98633e+02	2.72000e+03	0.0173429	700.0
