Index	Ts	t	Weight	Tr
[#]	[°C]	[s]	[mg]	[°C]
682	1.30382e+02	6.82000e+02	3.00265	131.0
683	1.30895e+02	6.83000e+02	3.00264	131.5
684	1.31403e+02	6.84000e+02	3.00262	132.0
685	1.31908e+02	6.85000e+02	3.00261	132.5
686	1.32395e+02	6.86000e+02	3.0026	133.0
687	1.32895e+02	6.87000e+02	3.00258	133.5
688	1.33407e+02	6.88000e+02	3.00257	134.0
689	1.33898e+02	6.89000e+02	3.00255	134.5
690	1.34407e+02	6.90000e+02	3.00253	135.0
691	1.34902e+02	6.91000e+02	3.00251	135.5
692	1.35407e+02	6.92000e+02	3.00249	136.0
693	1.35906e+02	6.93000e+02	3.00247	136.5
694	1.36412e+02	6.94000e+02	3.00245	137.0
695	1.36907e+02	6.95000e+02	3.00243	137.5
696	1.37406e+02	6.96000e+02	3.00241	138.0
697	1.37907e+02	6.97000e+02	3.00239	138.5
698	1.38412e+02	6.98000e+02	3.00236	139.0
699	1.38915e+02	6.99000e+02	3.00234	139.5
700	1.39416e+02	7.00000e+02	3.00231	140.0
701	1.39915e+02	7.01000e+02	3.00228	140.5
702	1.40429e+02	7.02000e+02	3.00226	141.0
703	1.40939e+02	7.03000e+02	3.00224	141.5
704	1.41443e+02	7.04000e+02	3.00222	142.0
705	1.41939e+02	7.05000e+02	3.0022	142.5
706	1.42444e+02	7.06000e+02	3.00218	143.0
707	1.42941e+02	7.07000e+02	3.00216	143.5
708	1.43453e+02	7.08000e+02	3.00214	144.0
709	1.43952e+02	7.09000e+02	3.00212	144.5
710	1.44446e+02	7.10000e+02	3.00209	145.0
711	1.44964e+02	7.11000e+02	3.00207	145.5
712	1.45458e+02	7.12000e+02	3.00203	146.0
713	1.45958e+02	7.13000e+02	3.002	146.5
714	1.46477e+02	7.14000e+02	3.00196	147.0
715	1.46977e+02	7.15000e+02	3.00192	147.5
716	1.47479e+02	7.16000e+02	3.00188	148.0
717	1.47983e+02	7.17000e+02	3.00183	148.5
718	1.48488e+02	7.18000e+02	3.00179	149.0
719	1.48992e+02	7.19000e+02	3.00175	149.5
720	1.49496e+02	7.20000e+02	3.00171	150.0
721	1.50000e+02	7.21000e+02	3.00168	150.5
722	1.50496e+02	7.22000e+02	3.00166	151.0
723	1.51010e+02	7.23000e+02	3.00163	151.5
724	1.51519e+02	7.24000e+02	3.00163	152.0
725	1.52017e+02	7.25000e+02	3.00162	152.5
726	1.52527e+02	7.26000e+02	3.00161	153.0
727	1.53034e+02	7.27000e+02	3.0016	153.5
728	1.53532e+02	7.28000e+02	3.00159	154.0
729	1.54035e+02	7.29000e+02	3.00158	154.5
730	1.54547e+02	7.30000e+02	3.00155	155.0
731	1.55040e+02	7.31000e+02	3.00153	155.5
732	1.55555e+02	7.32000e+02	3.00148	156.0
733	1.56051e+02	7.33000e+02	3.00144	156.5
734	1.56551e+02	7.34000e+02	3.0014	157.0
735	1.57055e+02	7.35000e+02	3.00135	157.5
736	1.57559e+02	7.36000e+02	3.00129	158.0
737	1.58068e+02	7.37000e+02	3.00124	158.5
738	1.58558e+02	7.38000e+02	3.00118	159.0
739	1.59073e+02	7.39000e+02	3.00113	159.5
740	1.59567e+02	7.40000e+02	3.00108	160.0
741	1.60074e+02	7.41000e+02	3.00103	160.5
742	1.60592e+02	7.42000e+02	3.00097	161.0
743	1.61097e+02	7.43000e+02	3.00092	161.5
744	1.61592e+02	7.44000e+02	3.00086	162.0
745	1.62098e+02	7.45000e+02	3.00081	162.5
746	1.62599e+02	7.46000e+02	3.00076	163.0
747	1.63106e+02	7.47000e+02	3.0007	163.5
748	1.63607e+02	7.48000e+02	3.00065	164.0
749	1.64122e+02	7.49000e+02	3.00059	164.5
750	1.64621e+02	7.50000e+02	3.00054	165.0
751	1.65141e+02	7.51000e+02	3.00048	165.5
752	1.65635e+02	7.52000e+02	3.00042	166.0
753	1.66135e+02	7.53000e+02	3.00036	166.5
754	1.66648e+02	7.54000e+02	3.0003	167.0
755	1.67163e+02	7.55000e+02	3.00023	167.5
756	1.67663e+02	7.56000e+02	3.00016	168.0
757	1.68164e+02	7.57000e+02	3.00009	168.5
758	1.68679e+02	7.58000e+02	3.00002	169.0
759	1.69173e+02	7.59000e+02	2.99996	169.5
760	1.69677e+02	7.60000e+02	2.99989	170.0
761	1.70191e+02	7.61000e+02	2.99982	170.5
762	1.70695e+02	7.62000e+02	2.99976	171.0
763	1.71195e+02	7.63000e+02	2.99971	171.5
764	1.71704e+02	7.64000e+02	2.99967	172.0
765	1.72214e+02	7.65000e+02	2.99963	172.5
766	1.72721e+02	7.66000e+02	2.99959	173.0
767	1.73224e+02	7.67000e+02	2.99955	173.5
768	1.73737e+02	7.68000e+02	2.99953	174.0
769	1.74237e+02	7.69000e+02	2.9995	174.5
770	1.74737e+02	7.70000e+02	2.99947	175.0
771	1.75249e+02	7.71000e+02	2.99944	175.5
772	1.75752e+02	7.72000e+02	2.99941	176.0
773	1.76262e+02	7.73000e+02	2.99937	176.5
774	1.76763e+02	7.74000e+02	2.99933	177.0
775	1.77267e+02	7.75000e+02	2.99928	177.5
776	1.77774e+02	7.76000e+02	2.99921	178.0
777	1.78273e+02	7.77000e+02	2.99914	178.5
778	1.78788e+02	7.78000e+02	2.99907	179.0
779	1.79294e+02	7.79000e+02	2.99899	179.5
780	1.79805e+02	7.80000e+02	2.99889	180.0
781	1.80309e+02	7.81000e+02	2.99881	180.5
782	1.80810e+02	7.82000e+02	2.99872	181.0
783	1.81326e+02	7.83000e+02	2.99863	181.5
784	1.81814e+02	7.84000e+02	2.99853	182.0
785	1.82337e+02	7.85000e+02	2.99843	182.5
786	1.82844e+02	7.86000e+02	2.99832	183.0
787	1.83361e+02	7.87000e+02	2.9982	183.5
788	1.83852e+02	7.88000e+02	2.99807	184.0
789	1.84372e+02	7.89000e+02	2.99793	184.5
790	1.84878e+02	7.90000e+02	2.9978	185.0
791	1.85379e+02	7.91000e+02	2.99765	185.5
792	1.85879e+02	7.92000e+02	2.99749	186.0
793	1.86398e+02	7.93000e+02	2.99734	186.5
794	1.86897e+02	7.94000e+02	2.99718	187.0
795	1.87406e+02	7.95000e+02	2.99702	187.5
796	1.87915e+02	7.96000e+02	2.99685	188.0
797	1.88418e+02	7.97000e+02	2.99668	188.5
798	1.88928e+02	7.98000e+02	2.9965	189.0
799	1.89428e+02	7.99000e+02	2.99633	189.5
800	1.89939e+02	8.00000e+02	2.99613	190.0
801	1.90447e+02	8.01000e+02	2.99594	190.5
802	1.90967e+02	8.02000e+02	2.99574	191.0
803	1.91468e+02	8.03000e+02	2.99553	191.5
804	1.91969e+02	8.04000e+02	2.9953	192.0
805	1.92483e+02	8.05000e+02	2.99507	192.5
806	1.92982e+02	8.06000e+02	2.99484	193.0
807	1.93501e+02	8.07000e+02	2.9946	193.5
808	1.94016e+02	8.08000e+02	2.99433	194.0
809	1.94520e+02	8.09000e+02	2.99406	194.5
810	1.95013e+02	8.10000e+02	2.99379	195.0
811	1.95526e+02	8.11000e+02	2.9935	195.5
812	1.96039e+02	8.12000e+02	2.99319	196.0
813	1.96551e+02	8.13000e+02	2.99288	196.5
814	1.97044e+02	8.14000e+02	2.99257	197.0
815	1.97552e+02	8.15000e+02	2.99225	197.5
816	1.98054e+02	8.16000e+02	2.99191	198.0
817	1.98583e+02	8.17000e+02	2.99158	198.5
818	1.99082e+02	8.18000e+02	2.99124	199.0
819	1.99590e+02	8.19000e+02	2.9909	199.5
820	2.00097e+02	8.20000e+02	2.99056	200.0
821	2.00606e+02	8.21000e+02	2.99021	200.5
822	2.01121e+02	8.22000e+02	2.98987	201.0
823	2.01622e+02	8.23000e+02	2.98953	201.5
824	2.02134e+02	8.24000e+02	2.98917	202.0
825	2.02649e+02	8.25000e+02	2.98882	202.5
826	2.03146e+02	8.26000e+02	2.98846	203.0
827	2.03644e+02	8.27000e+02	2.9881	203.5
828	2.04148e+02	8.28000e+02	2.98771	204.0
829	2.04656e+02	8.29000e+02	2.98732	204.5
830	2.05161e+02	8.30000e+02	2.98693	205.0
831	2.05664e+02	8.31000e+02	2.98653	205.5
832	2.06167e+02	8.32000e+02	2.9861	206.0
833	2.06669e+02	8.33000e+02	2.98567	206.5
834	2.07186e+02	8.34000e+02	2.98525	207.0
835	2.07691e+02	8.35000e+02	2.98482	207.5
836	2.08198e+02	8.36000e+02	2.98437	208.0
837	2.08706e+02	8.37000e+02	2.98393	208.5
838	2.09210e+02	8.38000e+02	2.98349	209.0
839	2.09722e+02	8.39000e+02	2.98304	209.5
840	2.10230e+02	8.40000e+02	2.98259	210.0
841	2.10746e+02	8.41000e+02	2.98214	210.5
842	2.11251e+02	8.42000e+02	2.98169	211.0
843	2.11757e+02	8.43000e+02	2.98123	211.5
844	2.12275e+02	8.44000e+02	2.98076	212.0
845	2.12784e+02	8.45000e+02	2.98029	212.5
846	2.13290e+02	8.46000e+02	2.97981	213.0
847	2.13799e+02	8.47000e+02	2.97934	213.5
848	2.14313e+02	8.48000e+02	2.97885	214.0
849	2.14805e+02	8.49000e+02	2.97836	214.5
850	2.15301e+02	8.50000e+02	2.97788	215.0
851	2.15812e+02	8.51000e+02	2.9774	215.5
852	2.16305e+02	8.52000e+02	2.97692	216.0
853	2.16826e+02	8.53000e+02	2.97645	216.5
854	2.17322e+02	8.54000e+02	2.97598	217.0
855	2.17823e+02	8.55000e+02	2.97551	217.5
856	2.18332e+02	8.56000e+02	2.97504	218.0
857	2.18839e+02	8.57000e+02	2.97457	218.5
858	2.19346e+02	8.58000e+02	2.97409	219.0
859	2.19872e+02	8.59000e+02	2.97362	219.5
860	2.20382e+02	8.60000e+02	2.97313	220.0
861	2.20885e+02	8.61000e+02	2.97264	220.5
862	2.21372e+02	8.62000e+02	2.97216	221.0
863	2.21879e+02	8.63000e+02	2.97167	221.5
864	2.22418e+02	8.64000e+02	2.97118	222.0
865	2.22928e+02	8.65000e+02	2.9707	222.5
866	2.23435e+02	8.66000e+02	2.97022	223.0
867	2.23952e+02	8.67000e+02	2.96974	223.5
868	2.24479e+02	8.68000e+02	2.96926	224.0
869	2.24991e+02	8.69000e+02	2.96878	224.5
870	2.25489e+02	8.70000e+02	2.9683	225.0
871	2.25994e+02	8.71000e+02	2.96782	225.5
872	2.26524e+02	8.72000e+02	2.96734	226.0
873	2.27032e+02	8.73000e+02	2.96687	226.5
874	2.27526e+02	8.74000e+02	2.96639	227.0
875	2.28032e+02	8.75000e+02	2.96592	227.5
876	2.28544e+02	8.76000e+02	2.96545	228.0
877	2.29057e+02	8.77000e+02	2.96498	228.5
878	2.29555e+02	8.78000e+02	2.9645	229.0
879	2.30074e+02	8.79000e+02	2.96403	229.5
880	2.30583e+02	8.80000e+02	2.96354	230.0
881	2.31086e+02	8.81000e+02	2.96306	230.5
882	2.31589e+02	8.82000e+02	2.96256	231.0
883	2.32091e+02	8.83000e+02	2.96206	231.5
884	2.32601e+02	8.84000e+02	2.96154	232.0
885	2.33106e+02	8.85000e+02	2.96104	232.5
886	2.33597e+02	8.86000e+02	2.96053	233.0
887	2.34097e+02	8.87000e+02	2.96003	233.5
888	2.34611e+02	8.88000e+02	2.95953	234.0
889	2.35120e+02	8.89000e+02	2.95903	234.5
890	2.35625e+02	8.90000e+02	2.95854	235.0
891	2.36141e+02	8.91000e+02	2.95804	235.5
892	2.36638e+02	8.92000e+02	2.95753	236.0
893	2.37137e+02	8.93000e+02	2.95702	236.5
894	2.37644e+02	8.94000e+02	2.95649	237.0
895	2.38148e+02	8.95000e+02	2.95597	237.5
896	2.38661e+02	8.96000e+02	2.95541	238.0
897	2.39170e+02	8.97000e+02	2.95487	238.5
898	2.39680e+02	8.98000e+02	2.95432	239.0
899	2.40190e+02	8.99000e+02	2.95377	239.5
900	2.40697e+02	9.00000e+02	2.9532	240.0
901	2.41215e+02	9.01000e+02	2.95263	240.5
902	2.41722e+02	9.02000e+02	2.95206	241.0
903	2.42231e+02	9.03000e+02	2.95149	241.5
904	2.42727e+02	9.04000e+02	2.95092	242.0
905	2.43231e+02	9.05000e+02	2.95035	242.5
906	2.43740e+02	9.06000e+02	2.94979	243.0
907	2.44253e+02	9.07000e+02	2.94922	243.5
908	2.44761e+02	9.08000e+02	2.94867	244.0
909	2.45273e+02	9.09000e+02	2.94812	244.5
910	2.45780e+02	9.10000e+02	2.94757	245.0
911	2.46281e+02	9.11000e+02	2.94702	245.5
912	2.46791e+02	9.12000e+02	2.94647	246.0
913	2.47296e+02	9.13000e+02	2.94593	246.5
914	2.47801e+02	9.14000e+02	2.94538	247.0
915	2.48313e+02	9.15000e+02	2.94484	247.5
916	2.48822e+02	9.16000e+02	2.94431	248.0
917	2.49325e+02	9.17000e+02	2.94377	248.5
918	2.49820e+02	9.18000e+02	2.94322	249.0
919	2.50310e+02	9.19000e+02	2.94268	249.5
920	2.50842e+02	9.20000e+02	2.94212	250.0
921	2.51349e+02	9.21000e+02	2.94156	250.5
922	2.51859e+02	9.22000e+02	2.94099	251.0
923	2.52364e+02	9.23000e+02	2.94042	251.5
924	2.52859e+02	9.24000e+02	2.93982	252.0
925	2.53386e+02	9.25000e+02	2.93924	252.5
926	2.53891e+02	9.26000e+02	2.93865	253.0
927	2.54402e+02	9.27000e+02	2.93806	253.5
928	2.54893e+02	9.28000e+02	2.93747	254.0
929	2.55418e+02	9.29000e+02	2.93688	254.5
930	2.55939e+02	9.30000e+02	2.93629	255.0
931	2.56446e+02	9.31000e+02	2.9357	255.5
932	2.56950e+02	9.32000e+02	2.93512	256.0
933	2.57462e+02	9.33000e+02	2.93453	256.5
934	2.57962e+02	9.34000e+02	2.93394	257.0
935	2.58469e+02	9.35000e+02	2.93335	257.5
936	2.58968e+02	9.36000e+02	2.93276	258.0
937	2.59487e+02	9.37000e+02	2.93218	258.5
938	2.59988e+02	9.38000e+02	2.9316	259.0
939	2.60502e+02	9.39000e+02	2.93102	259.5
940	2.61024e+02	9.40000e+02	2.93046	260.0
941	2.61519e+02	9.41000e+02	2.9299	260.5
942	2.62003e+02	9.42000e+02	2.92934	261.0
943	2.62505e+02	9.43000e+02	2.92878	261.5
944	2.62998e+02	9.44000e+02	2.92822	262.0
945	2.63509e+02	9.45000e+02	2.92766	262.5
946	2.63985e+02	9.46000e+02	2.92709	263.0
947	2.64486e+02	9.47000e+02	2.92652	263.5
948	2.65047e+02	9.48000e+02	2.92593	264.0
949	2.65529e+02	9.49000e+02	2.92535	264.5
950	2.66055e+02	9.50000e+02	2.92476	265.0
951	2.66533e+02	9.51000e+02	2.92416	265.5
952	2.67042e+02	9.52000e+02	2.92355	266.0
953	2.67527e+02	9.53000e+02	2.92294	266.5
954	2.68021e+02	9.54000e+02	2.92233	267.0
955	2.68505e+02	9.55000e+02	2.92172	267.5
956	2.69017e+02	9.56000e+02	2.92109	268.0
957	2.69483e+02	9.57000e+02	2.92047	268.5
958	2.69960e+02	9.58000e+02	2.91985	269.0
959	2.70462e+02	9.59000e+02	2.91922	269.5
960	2.70971e+02	9.60000e+02	2.91859	270.0
961	2.71463e+02	9.61000e+02	2.91795	270.5
962	2.71973e+02	9.62000e+02	2.91731	271.0
963	2.72468e+02	9.63000e+02	2.91667	271.5
964	2.72974e+02	9.64000e+02	2.91602	272.0
965	2.73486e+02	9.65000e+02	2.91539	272.5
966	2.74019e+02	9.66000e+02	2.91476	273.0
967	2.74519e+02	9.67000e+02	2.91414	273.5
968	2.75040e+02	9.68000e+02	2.91353	274.0
969	2.75561e+02	9.69000e+02	2.91292	274.5
970	2.76099e+02	9.70000e+02	2.91231	275.0
971	2.76642e+02	9.71000e+02	2.91171	275.5
972	2.77165e+02	9.72000e+02	2.91111	276.0
973	2.77647e+02	9.73000e+02	2.91051	276.5
974	2.78133e+02	9.74000e+02	2.90991	277.0
975	2.78632e+02	9.75000e+02	2.90931	277.5
976	2.79108e+02	9.76000e+02	2.9087	278.0
977	2.79599e+02	9.77000e+02	2.9081	278.5
978	2.80109e+02	9.78000e+02	2.90749	279.0
979	2.80616e+02	9.79000e+02	2.90687	279.5
980	2.81101e+02	9.80000e+02	2.90624	280.0
981	2.81601e+02	9.81000e+02	2.9056	280.5
982	2.82106e+02	9.82000e+02	2.90495	281.0
983	2.82599e+02	9.83000e+02	2.90429	281.5
984	2.83117e+02	9.84000e+02	2.90359	282.0
985	2.83637e+02	9.85000e+02	2.90289	282.5
986	2.84135e+02	9.86000e+02	2.90219	283.0
987	2.84637e+02	9.87000e+02	2.90148	283.5
988	2.85134e+02	9.88000e+02	2.90075	284.0
989	2.85653e+02	9.89000e+02	2.90003	284.5
990	2.86156e+02	9.90000e+02	2.89931	285.0
991	2.86675e+02	9.91000e+02	2.8986	285.5
992	2.87174e+02	9.92000e+02	2.89788	286.0
993	2.87685e+02	9.93000e+02	2.89717	286.5
994	2.88207e+02	9.94000e+02	2.89645	287.0
995	2.88691e+02	9.95000e+02	2.89572	287.5
996	2.89224e+02	9.96000e+02	2.89499	288.0
997	2.89720e+02	9.97000e+02	2.89426	288.5
998	2.90249e+02	9.98000e+02	2.89351	289.0
999	2.90757e+02	9.99000e+02	2.89277	289.5
1000	2.91280e+02	1.00000e+03	2.892	290.0
1001	2.91817e+02	1.00100e+03	2.89122	290.5
1002	2.92343e+02	1.00200e+03	2.89044	291.0
1003	2.92861e+02	1.00300e+03	2.88966	291.5
1004	2.93399e+02	1.00400e+03	2.88884	292.0
1005	2.93927e+02	1.00500e+03	2.88802	292.5
1006	2.94436e+02	1.00600e+03	2.88717	293.0
1007	2.94971e+02	1.00700e+03	2.8863	293.5
1008	2.95505e+02	1.00800e+03	2.88535	294.0
1009	2.96036e+02	1.00900e+03	2.88438	294.5
1010	2.96545e+02	1.01000e+03	2.88339	295.0
1011	2.97043e+02	1.01100e+03	2.88237	295.5
1012	2.97551e+02	1.01200e+03	2.88123	296.0
1013	2.98045e+02	1.01300e+03	2.88014	296.5
1014	2.98535e+02	1.01400e+03	2.87905	297.0
1015	2.99030e+02	1.01500e+03	2.87796	297.5
1016	2.99529e+02	1.01600e+03	2.87683	298.0
1017	3.00029e+02	1.01700e+03	2.87572	298.5
1018	3.00557e+02	1.01800e+03	2.87461	299.0
1019	3.01065e+02	1.01900e+03	2.87349	299.5
1020	3.01555e+02	1.02000e+03	2.87236	300.0
1021	3.02055e+02	1.02100e+03	2.87122	300.5
1022	3.02550e+02	1.02200e+03	2.87007	301.0
1023	3.03051e+02	1.02300e+03	2.86891	301.5
1024	3.03537e+02	1.02400e+03	2.86772	302.0
1025	3.04049e+02	1.02500e+03	2.86652	302.5
1026	3.04570e+02	1.02600e+03	2.86532	303.0
1027	3.05079e+02	1.02700e+03	2.8641	303.5
1028	3.05593e+02	1.02800e+03	2.86285	304.0
1029	3.06091e+02	1.02900e+03	2.8616	304.5
1030	3.06602e+02	1.03000e+03	2.86034	305.0
1031	3.07099e+02	1.03100e+03	2.85908	305.5
1032	3.07600e+02	1.03200e+03	2.85777	306.0
1033	3.08113e+02	1.03300e+03	2.85647	306.5
1034	3.08600e+02	1.03400e+03	2.85515	307.0
1035	3.09097e+02	1.03500e+03	2.85381	307.5
1036	3.09605e+02	1.03600e+03	2.85242	308.0
1037	3.10094e+02	1.03700e+03	2.85103	308.5
1038	3.10587e+02	1.03800e+03	2.84964	309.0
1039	3.11076e+02	1.03900e+03	2.84823	309.5
1040	3.11584e+02	1.04000e+03	2.84675	310.0
1041	3.12078e+02	1.04100e+03	2.84528	310.5
1042	3.12584e+02	1.04200e+03	2.8438	311.0
1043	3.13084e+02	1.04300e+03	2.84231	311.5
1044	3.13586e+02	1.04400e+03	2.84075	312.0
1045	3.14073e+02	1.04500e+03	2.83921	312.5
1046	3.14576e+02	1.04600e+03	2.83766	313.0
1047	3.15086e+02	1.04700e+03	2.8361	313.5
1048	3.15585e+02	1.04800e+03	2.8345	314.0
1049	3.16091e+02	1.04900e+03	2.83291	314.5
1050	3.16577e+02	1.05000e+03	2.83131	315.0
1051	3.17071e+02	1.05100e+03	2.8297	315.5
1052	3.17560e+02	1.05200e+03	2.82807	316.0
1053	3.18056e+02	1.05300e+03	2.82643	316.5
1054	3.18539e+02	1.05400e+03	2.82479	317.0
1055	3.19041e+02	1.05500e+03	2.82314	317.5
1056	3.19526e+02	1.05600e+03	2.82146	318.0
1057	3.20023e+02	1.05700e+03	2.81978	318.5
1058	3.20530e+02	1.05800e+03	2.81809	319.0
1059	3.21025e+02	1.05900e+03	2.81641	319.5
1060	3.21528e+02	1.06000e+03	2.81469	320.0
1061	3.22028e+02	1.06100e+03	2.81298	320.5
1062	3.22513e+02	1.06200e+03	2.81126	321.0
1063	3.23012e+02	1.06300e+03	2.80954	321.5
1064	3.23525e+02	1.06400e+03	2.8078	322.0
1065	3.24038e+02	1.06500e+03	2.80606	322.5
1066	3.24542e+02	1.06600e+03	2.80432	323.0
1067	3.25048e+02	1.06700e+03	2.80257	323.5
1068	3.25546e+02	1.06800e+03	2.80081	324.0
1069	3.26047e+02	1.06900e+03	2.79905	324.5
1070	3.26554e+02	1.07000e+03	2.79729	325.0
1071	3.27039e+02	1.07100e+03	2.79552	325.5
1072	3.27542e+02	1.07200e+03	2.79372	326.0
1073	3.28046e+02	1.07300e+03	2.79193	326.5
1074	3.28547e+02	1.07400e+03	2.79013	327.0
1075	3.29045e+02	1.07500e+03	2.78833	327.5
1076	3.29539e+02	1.07600e+03	2.78648	328.0
1077	3.30035e+02	1.07700e+03	2.78464	328.5
1078	3.30532e+02	1.07800e+03	2.78278	329.0
1079	3.31031e+02	1.07900e+03	2.7809	329.5
1080	3.31535e+02	1.08000e+03	2.77893	330.0
1081	3.32024e+02	1.08100e+03	2.77696	330.5
1082	3.32516e+02	1.08200e+03	2.77494	331.0
1083	3.33024e+02	1.08300e+03	2.7729	331.5
1084	3.33523e+02	1.08400e+03	2.77068	332.0
1085	3.34013e+02	1.08500e+03	2.76848	332.5
1086	3.34531e+02	1.08600e+03	2.76623	333.0
1087	3.35022e+02	1.08700e+03	2.76394	333.5
1088	3.35523e+02	1.08800e+03	2.76147	334.0
1089	3.36013e+02	1.08900e+03	2.75902	334.5
1090	3.36525e+02	1.09000e+03	2.75654	335.0
1091	3.37042e+02	1.09100e+03	2.75403	335.5
1092	3.37556e+02	1.09200e+03	2.75135	336.0
1093	3.38042e+02	1.09300e+03	2.74868	336.5
1094	3.38544e+02	1.09400e+03	2.74598	337.0
1095	3.39042e+02	1.09500e+03	2.74324	337.5
1096	3.39544e+02	1.09600e+03	2.7403	338.0
1097	3.40035e+02	1.09700e+03	2.73737	338.5
1098	3.40523e+02	1.09800e+03	2.73438	339.0
1099	3.41049e+02	1.09900e+03	2.73134	339.5
1100	3.41550e+02	1.10000e+03	2.72805	340.0
1101	3.42061e+02	1.10100e+03	2.72477	340.5
1102	3.42559e+02	1.10200e+03	2.72143	341.0
1103	3.43061e+02	1.10300e+03	2.71803	341.5
1104	3.43552e+02	1.10400e+03	2.71433	342.0
1105	3.44053e+02	1.10500e+03	2.71064	342.5
1106	3.44562e+02	1.10600e+03	2.70688	343.0
1107	3.45059e+02	1.10700e+03	2.70304	343.5
1108	3.45556e+02	1.10800e+03	2.69883	344.0
1109	3.46075e+02	1.10900e+03	2.69464	344.5
1110	3.46567e+02	1.11000e+03	2.69037	345.0
1111	3.47071e+02	1.11100e+03	2.686	345.5
1112	3.47559e+02	1.11200e+03	2.68121	346.0
1113	3.48052e+02	1.11300e+03	2.67646	346.5
1114	3.48545e+02	1.11400e+03	2.6716	347.0
1115	3.49054e+02	1.11500e+03	2.66665	347.5
1116	3.49556e+02	1.11600e+03	2.66121	348.0
1117	3.50059e+02	1.11700e+03	2.6558	348.5
1118	3.50554e+02	1.11800e+03	2.65027	349.0
1119	3.51058e+02	1.11900e+03	2.64463	349.5
1120	3.51563e+02	1.12000e+03	2.63839	350.0
1121	3.52055e+02	1.12100e+03	2.63222	350.5
1122	3.52562e+02	1.12200e+03	2.6259	351.0
1123	3.53056e+02	1.12300e+03	2.61946	351.5
1124	3.53542e+02	1.12400e+03	2.61233	352.0
1125	3.54042e+02	1.12500e+03	2.60526	352.5
1126	3.54530e+02	1.12600e+03	2.598	353.0
1127	3.55035e+02	1.12700e+03	2.59059	353.5
1128	3.55529e+02	1.12800e+03	2.58237	354.0
1129	3.56046e+02	1.12900e+03	2.57423	354.5
1130	3.56545e+02	1.13000e+03	2.5659	355.0
1131	3.57044e+02	1.13100e+03	2.5574	355.5
1132	3.57560e+02	1.13200e+03	2.54801	356.0
1133	3.58057e+02	1.13300e+03	2.53874	356.5
1134	3.58558e+02	1.13400e+03	2.52927	357.0
1135	3.59046e+02	1.13500e+03	2.51963	357.5
1136	3.59540e+02	1.13600e+03	2.50906	358.0
1137	3.60038e+02	1.13700e+03	2.49858	358.5
1138	3.60524e+02	1.13800e+03	2.48787	359.0
1139	3.61028e+02	1.13900e+03	2.47695	359.5
1140	3.61525e+02	1.14000e+03	2.46497	360.0
1141	3.62010e+02	1.14100e+03	2.45307	360.5
1142	3.62511e+02	1.14200e+03	2.4409	361.0
1143	3.63000e+02	1.14300e+03	2.42848	361.5
1144	3.63487e+02	1.14400e+03	2.41484	362.0
1145	3.63989e+02	1.14500e+03	2.40134	362.5
1146	3.64490e+02	1.14600e+03	2.38758	363.0
1147	3.64987e+02	1.14700e+03	2.37358	363.5
1148	3.65481e+02	1.14800e+03	2.35831	364.0
1149	3.65970e+02	1.14900e+03	2.34322	364.5
1150	3.66459e+02	1.15000e+03	2.32786	365.0
1151	3.66960e+02	1.15100e+03	2.31225	365.5
1152	3.67459e+02	1.15200e+03	2.29537	366.0
1153	3.67951e+02	1.15300e+03	2.27866	366.5
1154	3.68440e+02	1.15400e+03	2.26167	367.0
1155	3.68936e+02	1.15500e+03	2.24443	367.5
1156	3.69427e+02	1.15600e+03	2.22588	368.0
1157	3.69913e+02	1.15700e+03	2.2075	368.5
1158	3.70400e+02	1.15800e+03	2.18883	369.0
1159	3.70890e+02	1.15900e+03	2.16991	369.5
1160	3.71383e+02	1.16000e+03	2.14965	370.0
1161	3.71904e+02	1.16100e+03	2.12956	370.5
1162	3.72433e+02	1.16200e+03	2.1092	371.0
1163	3.72935e+02	1.16300e+03	2.0886	371.5
1164	3.73422e+02	1.16400e+03	2.06669	372.0
1165	3.73910e+02	1.16500e+03	2.045	372.5
1166	3.74395e+02	1.16600e+03	2.02305	373.0
1167	3.74891e+02	1.16700e+03	2.00088	373.5
1168	3.75381e+02	1.16800e+03	1.97751	374.0
1169	3.75870e+02	1.16900e+03	1.9543	374.5
1170	3.76366e+02	1.17000e+03	1.93085	375.0
1171	3.76861e+02	1.17100e+03	1.90718	375.5
1172	3.77358e+02	1.17200e+03	1.88236	376.0
1173	3.77873e+02	1.17300e+03	1.85773	376.5
1174	3.78378e+02	1.17400e+03	1.8329	377.0
1175	3.78880e+02	1.17500e+03	1.80788	377.5
1176	3.79388e+02	1.17600e+03	1.78188	378.0
1177	3.79896e+02	1.17700e+03	1.75608	378.5
1178	3.80386e+02	1.17800e+03	1.73013	379.0
1179	3.80883e+02	1.17900e+03	1.70406	379.5
1180	3.81371e+02	1.18000e+03	1.67727	380.0
1181	3.81871e+02	1.18100e+03	1.65067	380.5
1182	3.82379e+02	1.18200e+03	1.62399	381.0
1183	3.82885e+02	1.18300e+03	1.59722	381.5
1184	3.83395e+02	1.18400e+03	1.56999	382.0
1185	3.83887e+02	1.18500e+03	1.54285	382.5
1186	3.84390e+02	1.18600e+03	1.51562	383.0
1187	3.84893e+02	1.18700e+03	1.48832	383.5
1188	3.85399e+02	1.18800e+03	1.46064	384.0
1189	3.85909e+02	1.18900e+03	1.43304	384.5
1190	3.86418e+02	1.19000e+03	1.40539	385.0
1191	3.86909e+02	1.19100e+03	1.37771	385.5
1192	3.87436e+02	1.19200e+03	1.34978	386.0
1193	3.87924e+02	1.19300e+03	1.32196	386.5
1194	3.88416e+02	1.19400e+03	1.29414	387.0
1195	3.88905e+02	1.19500e+03	1.26632	387.5
1196	3.89399e+02	1.19600e+03	1.23848	388.0
1197	3.89909e+02	1.19700e+03	1.21071	388.5
1198	3.90415e+02	1.19800e+03	1.183	389.0
1199	3.90913e+02	1.19900e+03	1.15532	389.5
1200	3.91435e+02	1.20000e+03	1.12786	390.0
1201	3.91957e+02	1.20100e+03	1.10043	390.5
1202	3.92481e+02	1.20200e+03	1.07309	391.0
1203	3.92986e+02	1.20300e+03	1.04583	391.5
1204	3.93522e+02	1.20400e+03	1.01895	392.0
1205	3.94067e+02	1.20500e+03	0.992023	392.5
1206	3.94596e+02	1.20600e+03	0.965181	393.0
1207	3.95104e+02	1.20700e+03	0.938414	393.5
1208	3.95601e+02	1.20800e+03	0.912013	394.0
1209	3.96116e+02	1.20900e+03	0.88554	394.5
1210	3.96631e+02	1.21000e+03	0.859126	395.0
1211	3.97139e+02	1.21100e+03	0.832772	395.5
1212	3.97637e+02	1.21200e+03	0.806713	396.0
1213	3.98151e+02	1.21300e+03	0.780616	396.5
1214	3.98688e+02	1.21400e+03	0.754605	397.0
1215	3.99212e+02	1.21500e+03	0.728668	397.5
1216	3.99743e+02	1.21600e+03	0.703107	398.0
1217	4.00261e+02	1.21700e+03	0.677559	398.5
1218	4.00801e+02	1.21800e+03	0.652158	399.0
1219	4.01307e+02	1.21900e+03	0.626879	399.5
1220	4.01810e+02	1.22000e+03	0.602228	400.0
1221	4.02321e+02	1.22100e+03	0.577564	400.5
1222	4.02831e+02	1.22200e+03	0.553115	401.0
1223	4.03343e+02	1.22300e+03	0.528856	401.5
1224	4.03866e+02	1.22400e+03	0.505537	402.0
1225	4.04378e+02	1.22500e+03	0.482197	402.5
1226	4.04904e+02	1.22600e+03	0.459151	403.0
1227	4.05430e+02	1.22700e+03	0.43636	403.5
1228	4.05928e+02	1.22800e+03	0.414861	404.0
1229	4.06454e+02	1.22900e+03	0.393261	404.5
1230	4.06960e+02	1.23000e+03	0.371998	405.0
1231	4.07487e+02	1.23100e+03	0.351033	405.5
1232	4.07992e+02	1.23200e+03	0.331628	406.0
1233	4.08478e+02	1.23300e+03	0.312081	406.5
1234	4.08982e+02	1.23400e+03	0.29292	407.0
1235	4.09497e+02	1.23500e+03	0.274103	407.5
1236	4.10026e+02	1.23600e+03	0.257053	408.0
1237	4.10505e+02	1.23700e+03	0.239794	408.5
1238	4.10948e+02	1.23800e+03	0.22292	409.0
1239	4.11437e+02	1.23900e+03	0.206398	409.5
1240	4.11975e+02	1.24000e+03	0.191704	410.0
1241	4.12494e+02	1.24100e+03	0.176757	410.5
1242	4.13026e+02	1.24200e+03	0.162184	411.0
1243	4.13501e+02	1.24300e+03	0.147957	411.5
1244	4.14107e+02	1.24400e+03	0.135497	412.0
1245	4.14697e+02	1.24500e+03	0.122774	412.5
1246	4.15207e+02	1.24600e+03	0.110392	413.0
1247	4.15727e+02	1.24700e+03	0.0983301	413.5
1248	4.16253e+02	1.24800e+03	0.0879236	414.0
1249	4.16787e+02	1.24900e+03	0.0772562	414.5
1250	4.17305e+02	1.25000e+03	0.0668963	415.0
1251	4.17801e+02	1.25100e+03	0.0568264	415.5
1252	4.18318e+02	1.25200e+03	0.0482562	416.0
1253	4.18842e+02	1.25300e+03	0.0394435	416.5
1254	4.19532e+02	1.25400e+03	0.030901	417.0
1255	4.20044e+02	1.25500e+03	0.0226145	417.5
1256	4.20484e+02	1.25600e+03	0.0156529	418.0
1257	4.20912e+02	1.25700e+03	0.00846498	418.5
1258	4.21402e+02	1.25800e+03	0.00150933	419.0
1259	4.21857e+02	1.25900e+03	-0.00522156	419.5
1260	4.22337e+02	1.26000e+03	-0.0108078	420.0
1261	4.22841e+02	1.26100e+03	-0.0165864	420.5
1262	4.23325e+02	1.26200e+03	-0.0221664	421.0
1263	4.23826e+02	1.26300e+03	-0.0275551	421.5
1264	4.24327e+02	1.26400e+03	-0.0319617	422.0
1265	4.24819e+02	1.26500e+03	-0.0365491	422.5
1266	4.25322e+02	1.26600e+03	-0.0409767	423.0
1267	4.25811e+02	1.26700e+03	-0.0452476	423.5
1268	4.26297e+02	1.26800e+03	-0.0487112	424.0
1269	4.26817e+02	1.26900e+03	-0.052323	424.5
1270	4.27314e+02	1.27000e+03	-0.0558056	425.0
1271	4.27802e+02	1.27100e+03	-0.0591614	425.5
1272	4.28274e+02	1.27200e+03	-0.0618622	426.0
1273	4.28762e+02	1.27300e+03	-0.0646909	426.5
1274	4.29259e+02	1.27400e+03	-0.0674209	427.0
1275	4.29777e+02	1.27500e+03	-0.0700512	427.5
1276	4.30274e+02	1.27600e+03	-0.0721669	428.0
1277	4.30768e+02	1.27700e+03	-0.0743786	428.5
1278	4.31267e+02	1.27800e+03	-0.0765084	429.0
1279	4.31764e+02	1.27900e+03	-0.0785573	429.5
1280	4.32273e+02	1.28000e+03	-0.0801929	430.0
1281	4.32785e+02	1.28100e+03	-0.0819097	430.5
1282	4.33288e+02	1.28200e+03	-0.0835688	431.0
1283	4.33789e+02	1.28300e+03	-0.0851685	431.5
1284	4.34296e+02	1.28400e+03	-0.0864505	432.0
1285	4.34771e+02	1.28500e+03	-0.0877988	432.5
1286	4.35294e+02	1.28600e+03	-0.0891007	433.0
1287	4.35799e+02	1.28700e+03	-0.0903546	433.5
1288	4.36319e+02	1.28800e+03	-0.0913654	434.0
1289	4.36855e+02	1.28900e+03	-0.0924177	434.5
1290	4.37369e+02	1.29000e+03	-0.09343	435.0
1291	4.37897e+02	1.29100e+03	-0.0944032	435.5
1292	4.38404e+02	1.29200e+03	-0.0951734	436.0
1293	4.38950e+02	1.29300e+03	-0.0959871	436.5
1294	4.39524e+02	1.29400e+03	-0.0967739	437.0
1295	4.40076e+02	1.29500e+03	-0.0975329	437.5
1296	4.40627e+02	1.29600e+03	-0.0981471	438.0
1297	4.41163e+02	1.29700e+03	-0.0987933	438.5
1298	4.41682e+02	1.29800e+03	-0.0994209	439.0
1299	4.42198e+02	1.29900e+03	-0.100029	439.5
1300	4.42705e+02	1.30000e+03	-0.100535	440.0
1301	4.43239e+02	1.30100e+03	-0.101061	440.5
1302	4.43754e+02	1.30200e+03	-0.101571	441.0
1303	4.44231e+02	1.30300e+03	-0.102064	441.5
1304	4.44722e+02	1.30400e+03	-0.102473	442.0
1305	4.45215e+02	1.30500e+03	-0.102894	442.5
1306	4.45715e+02	1.30600e+03	-0.103299	443.0
1307	4.46234e+02	1.30700e+03	-0.103689	443.5
1308	4.46737e+02	1.30800e+03	-0.104002	444.0
1309	4.47276e+02	1.30900e+03	-0.104331	444.5
1310	4.47790e+02	1.31000e+03	-0.104648	445.0
1311	4.48304e+02	1.31100e+03	-0.104954	445.5
1312	4.48795e+02	1.31200e+03	-0.105203	446.0
1313	4.49311e+02	1.31300e+03	-0.105466	446.5
1314	4.49831e+02	1.31400e+03	-0.105723	447.0
1315	4.50331e+02	1.31500e+03	-0.105974	447.5
1316	4.50815e+02	1.31600e+03	-0.106191	448.0
1317	4.51323e+02	1.31700e+03	-0.106418	448.5
1318	4.51809e+02	1.31800e+03	-0.106641	449.0
1319	4.52272e+02	1.31900e+03	-0.106858	449.5
1320	4.52756e+02	1.32000e+03	-0.10705	450.0
1321	4.53221e+02	1.32100e+03	-0.107242	450.5
1322	4.53713e+02	1.32200e+03	-0.107427	451.0
1323	4.54254e+02	1.32300e+03	-0.107606	451.5
1324	4.54776e+02	1.32400e+03	-0.107753	452.0
1325	4.55256e+02	1.32500e+03	-0.107907	452.5
1326	4.55789e+02	1.32600e+03	-0.108053	453.0
1327	4.56320e+02	1.32700e+03	-0.108191	453.5
1328	4.56788e+02	1.32800e+03	-0.108293	454.0
1329	4.57233e+02	1.32900e+03	-0.108393	454.5
1330	4.57712e+02	1.33000e+03	-0.108483	455.0
1331	4.58202e+02	1.33100e+03	-0.108565	455.5
1332	4.58671e+02	1.33200e+03	-0.108606	456.0
1333	4.59134e+02	1.33300e+03	-0.108661	456.5
1334	4.59626e+02	1.33400e+03	-0.108715	457.0
1335	4.60111e+02	1.33500e+03	-0.108766	457.5
1336	4.60616e+02	1.33600e+03	-0.108802	458.0
1337	4.61105e+02	1.33700e+03	-0.108842	458.5
1338	4.61581e+02	1.33800e+03	-0.108883	459.0
1339	4.62057e+02	1.33900e+03	-0.108923	459.5
1340	4.62540e+02	1.34000e+03	-0.108964	460.0
1341	4.63024e+02	1.34100e+03	-0.109011	460.5
1342	4.63509e+02	1.34200e+03	-0.109061	461.0
1343	4.64017e+02	1.34300e+03	-0.109112	461.5
1344	4.64493e+02	1.34400e+03	-0.109169	462.0
1345	4.64974e+02	1.34500e+03	-0.109217	462.5
1346	4.65454e+02	1.34600e+03	-0.10926	463.0
1347	4.65934e+02	1.34700e+03	-0.109302	463.5
1348	4.66434e+02	1.34800e+03	-0.109328	464.0
1349	4.66932e+02	1.34900e+03	-0.109356	464.5
1350	4.67446e+02	1.35000e+03	-0.109383	465.0
1351	4.67936e+02	1.35100e+03	-0.109407	465.5
1352	4.68421e+02	1.35200e+03	-0.109426	466.0
1353	4.68895e+02	1.35300e+03	-0.109453	466.5
1354	4.69377e+02	1.35400e+03	-0.109485	467.0
1355	4.69862e+02	1.35500e+03	-0.10952	467.5
1356	4.70323e+02	1.35600e+03	-0.109571	468.0
1357	4.70796e+02	1.35700e+03	-0.109619	468.5
1358	4.71257e+02	1.35800e+03	-0.109667	469.0
1359	4.71725e+02	1.35900e+03	-0.109716	469.5
1360	4.72189e+02	1.36000e+03	-0.109766	470.0
1361	4.72678e+02	1.36100e+03	-0.109806	470.5
1362	4.73154e+02	1.36200e+03	-0.109837	471.0
1363	4.73622e+02	1.36300e+03	-0.109863	471.5
1364	4.74110e+02	1.36400e+03	-0.109856	472.0
1365	4.74581e+02	1.36500e+03	-0.109852	472.5
1366	4.75075e+02	1.36600e+03	-0.109844	473.0
1367	4.75542e+02	1.36700e+03	-0.109833	473.5
1368	4.76020e+02	1.36800e+03	-0.109803	474.0
1369	4.76491e+02	1.36900e+03	-0.109788	474.5
1370	4.76948e+02	1.37000e+03	-0.109779	475.0
1371	4.77413e+02	1.37100e+03	-0.109772	475.5
1372	4.77884e+02	1.37200e+03	-0.109781	476.0
1373	4.78344e+02	1.37300e+03	-0.109788	476.5
1374	4.78796e+02	1.37400e+03	-0.109797	477.0
1375	4.79269e+02	1.37500e+03	-0.109809	477.5
1376	4.79744e+02	1.37600e+03	-0.109833	478.0
1377	4.80220e+02	1.37700e+03	-0.109849	478.5
1378	4.80702e+02	1.37800e+03	-0.109861	479.0
1379	4.81197e+02	1.37900e+03	-0.10987	479.5
1380	4.81680e+02	1.38000e+03	-0.109869	480.0
1381	4.82159e+02	1.38100e+03	-0.109867	480.5
1382	4.82653e+02	1.38200e+03	-0.109865	481.0
1383	4.83150e+02	1.38300e+03	-0.109862	481.5
1384	4.83639e+02	1.38400e+03	-0.109853	482.0
1385	4.84137e+02	1.38500e+03	-0.109857	482.5
1386	4.84635e+02	1.38600e+03	-0.109869	483.0
1387	4.85126e+02	1.38700e+03	-0.109884	483.5
1388	4.85617e+02	1.38800e+03	-0.109926	484.0
1389	4.86119e+02	1.38900e+03	-0.109963	484.5
1390	4.86611e+02	1.39000e+03	-0.110003	485.0
1391	4.87085e+02	1.39100e+03	-0.110045	485.5
1392	4.87568e+02	1.39200e+03	-0.110102	486.0
1393	4.88062e+02	1.39300e+03	-0.110149	486.5
1394	4.88554e+02	1.39400e+03	-0.110192	487.0
1395	4.89049e+02	1.39500e+03	-0.110233	487.5
1396	4.89541e+02	1.39600e+03	-0.110265	488.0
1397	4.90029e+02	1.39700e+03	-0.110296	488.5
1398	4.90518e+02	1.39800e+03	-0.110322	489.0
1399	4.91023e+02	1.39900e+03	-0.110346	489.5
1400	4.91515e+02	1.40000e+03	-0.110354	490.0
1401	4.92002e+02	1.40100e+03	-0.110368	490.5
1402	4.92504e+02	1.40200e+03	-0.110381	491.0
1403	4.93008e+02	1.40300e+03	-0.110394	491.5
1404	4.93510e+02	1.40400e+03	-0.110401	492.0
1405	4.94005e+02	1.40500e+03	-0.110412	492.5
1406	4.94512e+02	1.40600e+03	-0.110424	493.0
1407	4.95009e+02	1.40700e+03	-0.110437	493.5
1408	4.95520e+02	1.40800e+03	-0.11045	494.0
1409	4.96014e+02	1.40900e+03	-0.110461	494.5
1410	4.96520e+02	1.41000e+03	-0.11047	495.0
1411	4.97011e+02	1.41100e+03	-0.110477	495.5
1412	4.97516e+02	1.41200e+03	-0.110474	496.0
1413	4.98017e+02	1.41300e+03	-0.110469	496.5
1414	4.98514e+02	1.41400e+03	-0.110462	497.0
1415	4.99011e+02	1.41500e+03	-0.110454	497.5
1416	4.99502e+02	1.41600e+03	-0.110435	498.0
1417	4.99997e+02	1.41700e+03	-0.110425	498.5
1418	5.00508e+02	1.41800e+03	-0.110417	499.0
1419	5.01007e+02	1.41900e+03	-0.11041	499.5
1420	5.01486e+02	1.42000e+03	-0.110413	500.0
1421	5.01974e+02	1.42100e+03	-0.110414	500.5
1422	5.02482e+02	1.42200e+03	-0.110416	501.0
1423	5.02977e+02	1.42300e+03	-0.110419	501.5
1424	5.03462e+02	1.42400e+03	-0.110431	502.0
1425	5.03968e+02	1.42500e+03	-0.11044	502.5
1426	5.04463e+02	1.42600e+03	-0.110449	503.0
1427	5.04965e+02	1.42700e+03	-0.110459	503.5
1428	5.05464e+02	1.42800e+03	-0.110474	504.0
1429	5.05945e+02	1.42900e+03	-0.110489	504.5
1430	5.06391e+02	1.43000e+03	-0.110506	505.0
1431	5.06864e+02	1.43100e+03	-0.110524	505.5
1432	5.07325e+02	1.43200e+03	-0.110546	506.0
1433	5.07813e+02	1.43300e+03	-0.110565	506.5
1434	5.08293e+02	1.43400e+03	-0.110583	507.0
1435	5.08774e+02	1.43500e+03	-0.1106	507.5
1436	5.09286e+02	1.43600e+03	-0.110613	508.0
1437	5.09801e+02	1.43700e+03	-0.110625	508.5
1438	5.10286e+02	1.43800e+03	-0.110635	509.0
1439	5.10741e+02	1.43900e+03	-0.110644	509.5
1440	5.11219e+02	1.44000e+03	-0.110643	510.0
1441	5.11713e+02	1.44100e+03	-0.110642	510.5
1442	5.12207e+02	1.44200e+03	-0.11064	511.0
1443	5.12716e+02	1.44300e+03	-0.110636	511.5
1444	5.13242e+02	1.44400e+03	-0.110626	512.0
1445	5.13740e+02	1.44500e+03	-0.110619	512.5
1446	5.14225e+02	1.44600e+03	-0.110612	513.0
1447	5.14725e+02	1.44700e+03	-0.110606	513.5
1448	5.15250e+02	1.44800e+03	-0.110603	514.0
1449	5.15776e+02	1.44900e+03	-0.110603	514.5
1450	5.16283e+02	1.45000e+03	-0.110605	515.0
1451	5.16779e+02	1.45100e+03	-0.110607	515.5
1452	5.17289e+02	1.45200e+03	-0.110614	516.0
1453	5.17800e+02	1.45300e+03	-0.110617	516.5
1454	5.18294e+02	1.45400e+03	-0.110617	517.0
1455	5.18800e+02	1.45500e+03	-0.110615	517.5
1456	5.19285e+02	1.45600e+03	-0.110602	518.0
1457	5.19783e+02	1.45700e+03	-0.110589	518.5
1458	5.20278e+02	1.45800e+03	-0.110575	519.0
1459	5.20776e+02	1.45900e+03	-0.110561	519.5
1460	5.21269e+02	1.46000e+03	-0.110545	520.0
1461	5.21756e+02	1.46100e+03	-0.11054	520.5
1462	5.22252e+02	1.46200e+03	-0.110541	521.0
1463	5.22732e+02	1.46300e+03	-0.110545	521.5
1464	5.23237e+02	1.46400e+03	-0.11057	522.0
1465	5.23731e+02	1.46500e+03	-0.110588	522.5
1466	5.24255e+02	1.46600e+03	-0.110606	523.0
1467	5.24772e+02	1.46700e+03	-0.110626	523.5
1468	5.25326e+02	1.46800e+03	-0.11065	524.0
1469	5.25821e+02	1.46900e+03	-0.110669	524.5
1470	5.26304e+02	1.47000e+03	-0.110685	525.0
1471	5.26837e+02	1.47100e+03	-0.1107	525.5
1472	5.27350e+02	1.47200e+03	-0.11071	526.0
1473	5.27853e+02	1.47300e+03	-0.110722	526.5
1474	5.28332e+02	1.47400e+03	-0.110737	527.0
1475	5.28781e+02	1.47500e+03	-0.110752	527.5
1476	5.29243e+02	1.47600e+03	-0.110768	528.0
1477	5.29716e+02	1.47700e+03	-0.110782	528.5
1478	5.30191e+02	1.47800e+03	-0.110794	529.0
1479	5.30696e+02	1.47900e+03	-0.110805	529.5
1480	5.31174e+02	1.48000e+03	-0.110815	530.0
1481	5.31652e+02	1.48100e+03	-0.110824	530.5
1482	5.32130e+02	1.48200e+03	-0.110836	531.0
1483	5.32593e+02	1.48300e+03	-0.11085	531.5
1484	5.33048e+02	1.48400e+03	-0.110863	532.0
1485	5.33506e+02	1.48500e+03	-0.110877	532.5
1486	5.33974e+02	1.48600e+03	-0.110892	533.0
1487	5.34438e+02	1.48700e+03	-0.110907	533.5
1488	5.34923e+02	1.48800e+03	-0.110922	534.0
1489	5.35405e+02	1.48900e+03	-0.110933	534.5
1490	5.35878e+02	1.49000e+03	-0.110939	535.0
1491	5.36359e+02	1.49100e+03	-0.110945	535.5
1492	5.36855e+02	1.49200e+03	-0.110938	536.0
1493	5.37355e+02	1.49300e+03	-0.110935	536.5
1494	5.37859e+02	1.49400e+03	-0.110932	537.0
1495	5.38341e+02	1.49500e+03	-0.110928	537.5
1496	5.38836e+02	1.49600e+03	-0.110919	538.0
1497	5.39339e+02	1.49700e+03	-0.110913	538.5
1498	5.39837e+02	1.49800e+03	-0.110908	539.0
1499	5.40322e+02	1.49900e+03	-0.110904	539.5
1500	5.40819e+02	1.50000e+03	-0.110905	540.0
1501	5.41312e+02	1.50100e+03	-0.110905	540.5
1502	5.41797e+02	1.50200e+03	-0.110904	541.0
1503	5.42289e+02	1.50300e+03	-0.110902	541.5
1504	5.42771e+02	1.50400e+03	-0.110901	542.0
1505	5.43258e+02	1.50500e+03	-0.110896	542.5
1506	5.43745e+02	1.50600e+03	-0.11089	543.0
1507	5.44228e+02	1.50700e+03	-0.110885	543.5
1508	5.44711e+02	1.50800e+03	-0.11088	544.0
1509	5.45202e+02	1.50900e+03	-0.11088	544.5
1510	5.45697e+02	1.51000e+03	-0.110886	545.0
1511	5.46186e+02	1.51100e+03	-0.110894	545.5
1512	5.46682e+02	1.51200e+03	-0.110914	546.0
1513	5.47177e+02	1.51300e+03	-0.110929	546.5
1514	5.47665e+02	1.51400e+03	-0.11094	547.0
1515	5.48145e+02	1.51500e+03	-0.110951	547.5
1516	5.48632e+02	1.51600e+03	-0.110958	548.0
1517	5.49108e+02	1.51700e+03	-0.110962	548.5
1518	5.49584e+02	1.51800e+03	-0.110965	549.0
1519	5.50087e+02	1.51900e+03	-0.110967	549.5
1520	5.50585e+02	1.52000e+03	-0.110965	550.0
1521	5.51088e+02	1.52100e+03	-0.11097	550.5
1522	5.51561e+02	1.52200e+03	-0.110977	551.0
1523	5.52056e+02	1.52300e+03	-0.110986	551.5
1524	5.52577e+02	1.52400e+03	-0.110999	552.0
1525	5.53074e+02	1.52500e+03	-0.111005	552.5
1526	5.53560e+02	1.52600e+03	-0.111009	553.0
1527	5.54060e+02	1.52700e+03	-0.111011	553.5
1528	5.54551e+02	1.52800e+03	-0.111007	554.0
1529	5.55029e+02	1.52900e+03	-0.111009	554.5
1530	5.55527e+02	1.53000e+03	-0.111014	555.0
1531	5.56017e+02	1.53100e+03	-0.111021	555.5
1532	5.56477e+02	1.53200e+03	-0.111036	556.0
1533	5.56983e+02	1.53300e+03	-0.11105	556.5
1534	5.57483e+02	1.53400e+03	-0.111064	557.0
1535	5.58001e+02	1.53500e+03	-0.111079	557.5
1536	5.58517e+02	1.53600e+03	-0.111101	558.0
1537	5.59056e+02	1.53700e+03	-0.111119	558.5
1538	5.59636e+02	1.53800e+03	-0.111134	559.0
1539	5.60244e+02	1.53900e+03	-0.111148	559.5
1540	5.60811e+02	1.54000e+03	-0.111158	560.0
1541	5.61325e+02	1.54100e+03	-0.111171	560.5
1542	5.61812e+02	1.54200e+03	-0.111187	561.0
1543	5.62307e+02	1.54300e+03	-0.111203	561.5
1544	5.62807e+02	1.54400e+03	-0.111224	562.0
1545	5.63247e+02	1.54500e+03	-0.111246	562.5
1546	5.63758e+02	1.54600e+03	-0.111269	563.0
1547	5.64292e+02	1.54700e+03	-0.111291	563.5
1548	5.64749e+02	1.54800e+03	-0.111313	564.0
1549	5.65449e+02	1.54900e+03	-0.111328	564.5
1550	5.66098e+02	1.55000e+03	-0.111338	565.0
1551	5.66760e+02	1.55100e+03	-0.111346	565.5
1552	5.67185e+02	1.55200e+03	-0.111337	566.0
1553	5.67592e+02	1.55300e+03	-0.111332	566.5
1554	5.68027e+02	1.55400e+03	-0.111324	567.0
1555	5.68476e+02	1.55500e+03	-0.111314	567.5
1556	5.68945e+02	1.55600e+03	-0.111293	568.0
1557	5.69405e+02	1.55700e+03	-0.111274	568.5
1558	5.69878e+02	1.55800e+03	-0.111254	569.0
1559	5.70364e+02	1.55900e+03	-0.111233	569.5
1560	5.70857e+02	1.56000e+03	-0.111208	570.0
1561	5.71330e+02	1.56100e+03	-0.111187	570.5
1562	5.71822e+02	1.56200e+03	-0.111169	571.0
1563	5.72316e+02	1.56300e+03	-0.111153	571.5
1564	5.72827e+02	1.56400e+03	-0.111143	572.0
1565	5.73316e+02	1.56500e+03	-0.111133	572.5
1566	5.73812e+02	1.56600e+03	-0.111122	573.0
1567	5.74298e+02	1.56700e+03	-0.111112	573.5
1568	5.74786e+02	1.56800e+03	-0.11111	574.0
1569	5.75282e+02	1.56900e+03	-0.111109	574.5
1570	5.75782e+02	1.57000e+03	-0.111114	575.0
1571	5.76265e+02	1.57100e+03	-0.111123	575.5
1572	5.76750e+02	1.57200e+03	-0.111148	576.0
1573	5.77229e+02	1.57300e+03	-0.111174	576.5
1574	5.77708e+02	1.57400e+03	-0.111202	577.0
1575	5.78199e+02	1.57500e+03	-0.111231	577.5
1576	5.78676e+02	1.57600e+03	-0.111269	578.0
1577	5.79157e+02	1.57700e+03	-0.111294	578.5
1578	5.79653e+02	1.57800e+03	-0.111309	579.0
1579	5.80152e+02	1.57900e+03	-0.111319	579.5
1580	5.80663e+02	1.58000e+03	-0.111305	580.0
1581	5.81180e+02	1.58100e+03	-0.111296	580.5
1582	5.81687e+02	1.58200e+03	-0.111284	581.0
1583	5.82191e+02	1.58300e+03	-0.111271	581.5
1584	5.82706e+02	1.58400e+03	-0.111245	582.0
1585	5.83200e+02	1.58500e+03	-0.111227	582.5
1586	5.83661e+02	1.58600e+03	-0.11121	583.0
1587	5.84145e+02	1.58700e+03	-0.111194	583.5
1588	5.84632e+02	1.58800e+03	-0.111183	584.0
1589	5.85126e+02	1.58900e+03	-0.111169	584.5
1590	5.85619e+02	1.59000e+03	-0.111153	585.0
1591	5.86109e+02	1.59100e+03	-0.111136	585.5
1592	5.86583e+02	1.59200e+03	-0.111121	586.0
1593	5.87099e+02	1.59300e+03	-0.111108	586.5
1594	5.87605e+02	1.59400e+03	-0.111097	587.0
1595	5.88100e+02	1.59500e+03	-0.111087	587.5
1596	5.88612e+02	1.59600e+03	-0.111085	588.0
1597	5.89125e+02	1.59700e+03	-0.111085	588.5
1598	5.89631e+02	1.59800e+03	-0.111088	589.0
1599	5.90138e+02	1.59900e+03	-0.111092	589.5
1600	5.90653e+02	1.60000e+03	-0.111111	590.0
1601	5.91148e+02	1.60100e+03	-0.111127	590.5
1602	5.91653e+02	1.60200e+03	-0.111145	591.0
1603	5.92160e+02	1.60300e+03	-0.111165	591.5
1604	5.92655e+02	1.60400e+03	-0.111192	592.0
1605	5.93173e+02	1.60500e+03	-0.111215	592.5
1606	5.93676e+02	1.60600e+03	-0.111235	593.0
1607	5.94171e+02	1.60700e+03	-0.111255	593.5
1608	5.94690e+02	1.60800e+03	-0.111271	594.0
1609	5.95198e+02	1.60900e+03	-0.111285	594.5
1610	5.95707e+02	1.61000e+03	-0.111296	595.0
1611	5.96218e+02	1.61100e+03	-0.111305	595.5
1612	5.96713e+02	1.61200e+03	-0.111301	596.0
1613	5.97215e+02	1.61300e+03	-0.111299	596.5
1614	5.97736e+02	1.61400e+03	-0.111296	597.0
1615	5.98253e+02	1.61500e+03	-0.111293	597.5
1616	5.98766e+02	1.61600e+03	-0.111286	598.0
1617	5.99275e+02	1.61700e+03	-0.111288	598.5
1618	5.99793e+02	1.61800e+03	-0.111293	599.0
1619	6.00317e+02	1.61900e+03	-0.111302	599.5
1620	6.00865e+02	1.62000e+03	-0.111323	600.0
1621	6.01403e+02	1.62100e+03	-0.111336	600.5
1622	6.01933e+02	1.62200e+03	-0.111346	601.0
1623	6.02474e+02	1.62300e+03	-0.111354	601.5
1624	6.03008e+02	1.62400e+03	-0.111357	602.0
1625	6.03536e+02	1.62500e+03	-0.111357	602.5
1626	6.04031e+02	1.62600e+03	-0.111355	603.0
1627	6.04554e+02	1.62700e+03	-0.111353	603.5
1628	6.05099e+02	1.62800e+03	-0.111336	604.0
1629	6.05610e+02	1.62900e+03	-0.111325	604.5
1630	6.06106e+02	1.63000e+03	-0.111313	605.0
1631	6.06597e+02	1.63100e+03	-0.111302	605.5
1632	6.07141e+02	1.63200e+03	-0.111291	606.0
1633	6.07582e+02	1.63300e+03	-0.111282	606.5
1634	6.08100e+02	1.63400e+03	-0.111276	607.0
1635	6.08567e+02	1.63500e+03	-0.111271	607.5
1636	6.09018e+02	1.63600e+03	-0.111273	608.0
1637	6.09502e+02	1.63700e+03	-0.111274	608.5
1638	6.09925e+02	1.63800e+03	-0.111274	609.0
1639	6.10405e+02	1.63900e+03	-0.111275	609.5
1640	6.10892e+02	1.64000e+03	-0.11128	610.0
1641	6.11389e+02	1.64100e+03	-0.111283	610.5
1642	6.11875e+02	1.64200e+03	-0.111287	611.0
1643	6.12423e+02	1.64300e+03	-0.111291	611.5
1644	6.12991e+02	1.64400e+03	-0.111297	612.0
1645	6.13461e+02	1.64500e+03	-0.111302	612.5
1646	6.13937e+02	1.64600e+03	-0.111307	613.0
1647	6.14434e+02	1.64700e+03	-0.111311	613.5
1648	6.14944e+02	1.64800e+03	-0.111318	614.0
1649	6.15384e+02	1.64900e+03	-0.111326	614.5
1650	6.15848e+02	1.65000e+03	-0.111336	615.0
1651	6.16330e+02	1.65100e+03	-0.111347	615.5
1652	6.16815e+02	1.65200e+03	-0.111365	616.0
1653	6.17287e+02	1.65300e+03	-0.111381	616.5
1654	6.17763e+02	1.65400e+03	-0.111399	617.0
1655	6.18245e+02	1.65500e+03	-0.111418	617.5
1656	6.18739e+02	1.65600e+03	-0.111441	618.0
1657	6.19213e+02	1.65700e+03	-0.111459	618.5
1658	6.19696e+02	1.65800e+03	-0.111473	619.0
1659	6.20168e+02	1.65900e+03	-0.111485	619.5
1660	6.20651e+02	1.66000e+03	-0.111484	620.0
1661	6.21114e+02	1.66100e+03	-0.111482	620.5
1662	6.21583e+02	1.66200e+03	-0.111476	621.0
1663	6.22058e+02	1.66300e+03	-0.111468	621.5
1664	6.22550e+02	1.66400e+03	-0.111445	622.0
1665	6.23034e+02	1.66500e+03	-0.111432	622.5
1666	6.23525e+02	1.66600e+03	-0.111423	623.0
1667	6.24010e+02	1.66700e+03	-0.111417	623.5
1668	6.24495e+02	1.66800e+03	-0.11142	624.0
1669	6.24970e+02	1.66900e+03	-0.111425	624.5
1670	6.25448e+02	1.67000e+03	-0.111432	625.0
1671	6.25941e+02	1.67100e+03	-0.111441	625.5
1672	6.26406e+02	1.67200e+03	-0.111464	626.0
1673	6.26880e+02	1.67300e+03	-0.111484	626.5
1674	6.27350e+02	1.67400e+03	-0.111503	627.0
1675	6.27819e+02	1.67500e+03	-0.111523	627.5
1676	6.28298e+02	1.67600e+03	-0.11154	628.0
1677	6.28777e+02	1.67700e+03	-0.111552	628.5
1678	6.29260e+02	1.67800e+03	-0.111561	629.0
1679	6.29741e+02	1.67900e+03	-0.111568	629.5
1680	6.30224e+02	1.68000e+03	-0.11156	630.0
1681	6.30706e+02	1.68100e+03	-0.111556	630.5
1682	6.31198e+02	1.68200e+03	-0.111551	631.0
1683	6.31687e+02	1.68300e+03	-0.111544	631.5
1684	6.32175e+02	1.68400e+03	-0.11153	632.0
1685	6.32669e+02	1.68500e+03	-0.111518	632.5
1686	6.33159e+02	1.68600e+03	-0.111507	633.0
1687	6.33650e+02	1.68700e+03	-0.111496	633.5
1688	6.34154e+02	1.68800e+03	-0.111486	634.0
1689	6.34655e+02	1.68900e+03	-0.111477	634.5
1690	6.35160e+02	1.69000e+03	-0.111468	635.0
1691	6.35662e+02	1.69100e+03	-0.111459	635.5
1692	6.36163e+02	1.69200e+03	-0.111457	636.0
1693	6.36672e+02	1.69300e+03	-0.111456	636.5
1694	6.37180e+02	1.69400e+03	-0.111457	637.0
1695	6.37679e+02	1.69500e+03	-0.111461	637.5
1696	6.38176e+02	1.69600e+03	-0.111473	638.0
1697	6.38670e+02	1.69700e+03	-0.111482	638.5
1698	6.39185e+02	1.69800e+03	-0.111492	639.0
1699	6.39678e+02	1.69900e+03	-0.111501	639.5
1700	6.40197e+02	1.70000e+03	-0.111513	640.0
1701	6.40683e+02	1.70100e+03	-0.111523	640.5
1702	6.41169e+02	1.70200e+03	-0.111533	641.0
1703	6.41664e+02	1.70300e+03	-0.111543	641.5
1704	6.42163e+02	1.70400e+03	-0.11155	642.0
1705	6.42673e+02	1.70500e+03	-0.111557	642.5
1706	6.43182e+02	1.70600e+03	-0.111564	643.0
1707	6.43709e+02	1.70700e+03	-0.111571	643.5
1708	6.44211e+02	1.70800e+03	-0.111577	644.0
1709	6.44702e+02	1.70900e+03	-0.111585	644.5
1710	6.45212e+02	1.71000e+03	-0.111596	645.0
1711	6.45727e+02	1.71100e+03	-0.111609	645.5
1712	6.46246e+02	1.71200e+03	-0.111627	646.0
1713	6.46763e+02	1.71300e+03	-0.111643	646.5
1714	6.47228e+02	1.71400e+03	-0.111656	647.0
1715	6.47730e+02	1.71500e+03	-0.111666	647.5
1716	6.48217e+02	1.71600e+03	-0.11167	648.0
1717	6.48718e+02	1.71700e+03	-0.11167	648.5
1718	6.49218e+02	1.71800e+03	-0.111669	649.0
1719	6.49704e+02	1.71900e+03	-0.111666	649.5
1720	6.50183e+02	1.72000e+03	-0.111649	650.0
1721	6.50663e+02	1.72100e+03	-0.111639	650.5
1722	6.51141e+02	1.72200e+03	-0.111631	651.0
1723	6.51638e+02	1.72300e+03	-0.111624	651.5
1724	6.52134e+02	1.72400e+03	-0.111624	652.0
1725	6.52649e+02	1.72500e+03	-0.111626	652.5
1726	6.53151e+02	1.72600e+03	-0.111631	653.0
1727	6.53636e+02	1.72700e+03	-0.111639	653.5
1728	6.54133e+02	1.72800e+03	-0.111657	654.0
1729	6.54635e+02	1.72900e+03	-0.111669	654.5
1730	6.55119e+02	1.73000e+03	-0.111678	655.0
1731	6.55588e+02	1.73100e+03	-0.111685	655.5
1732	6.56077e+02	1.73200e+03	-0.111687	656.0
1733	6.56570e+02	1.73300e+03	-0.111688	656.5
1734	6.57051e+02	1.73400e+03	-0.111688	657.0
1735	6.57507e+02	1.73500e+03	-0.111689	657.5
1736	6.57986e+02	1.73600e+03	-0.111685	658.0
1737	6.58468e+02	1.73700e+03	-0.111689	658.5
1738	6.58924e+02	1.73800e+03	-0.111696	659.0
1739	6.59391e+02	1.73900e+03	-0.111703	659.5
1740	6.59852e+02	1.74000e+03	-0.111719	660.0
1741	6.60321e+02	1.74100e+03	-0.111731	660.5
1742	6.60798e+02	1.74200e+03	-0.111741	661.0
1743	6.61272e+02	1.74300e+03	-0.111752	661.5
1744	6.61742e+02	1.74400e+03	-0.111762	662.0
1745	6.62228e+02	1.74500e+03	-0.111774	662.5
1746	6.62714e+02	1.74600e+03	-0.111785	663.0
1747	6.63212e+02	1.74700e+03	-0.111795	663.5
1748	6.63697e+02	1.74800e+03	-0.1118	664.0
1749	6.64186e+02	1.74900e+03	-0.111802	664.5
1750	6.64684e+02	1.75000e+03	-0.1118	665.0
1751	6.65181e+02	1.75100e+03	-0.111795	665.5
1752	6.65656e+02	1.75200e+03	-0.111772	666.0
1753	6.66150e+02	1.75300e+03	-0.111752	666.5
1754	6.66631e+02	1.75400e+03	-0.11173	667.0
1755	6.67127e+02	1.75500e+03	-0.111708	667.5
1756	6.67616e+02	1.75600e+03	-0.111677	668.0
1757	6.68085e+02	1.75700e+03	-0.111656	668.5
1758	6.68580e+02	1.75800e+03	-0.111641	669.0
1759	6.69064e+02	1.75900e+03	-0.11163	669.5
1760	6.69552e+02	1.76000e+03	-0.111637	670.0
1761	6.70036e+02	1.76100e+03	-0.111641	670.5
1762	6.70514e+02	1.76200e+03	-0.111649	671.0
1763	6.70998e+02	1.76300e+03	-0.111657	671.5
1764	6.71483e+02	1.76400e+03	-0.111676	672.0
1765	6.71974e+02	1.76500e+03	-0.111683	672.5
1766	6.72456e+02	1.76600e+03	-0.111684	673.0
1767	6.72954e+02	1.76700e+03	-0.111681	673.5
1768	6.73425e+02	1.76800e+03	-0.111661	674.0
1769	6.73909e+02	1.76900e+03	-0.111643	674.5
1770	6.74388e+02	1.77000e+03	-0.111623	675.0
1771	6.74866e+02	1.77100e+03	-0.111602	675.5
1772	6.75345e+02	1.77200e+03	-0.111569	676.0
1773	6.75834e+02	1.77300e+03	-0.111545	676.5
1774	6.76328e+02	1.77400e+03	-0.111521	677.0
1775	6.76811e+02	1.77500e+03	-0.111497	677.5
1776	6.77290e+02	1.77600e+03	-0.111471	678.0
1777	6.77773e+02	1.77700e+03	-0.111441	678.5
1778	6.78274e+02	1.77800e+03	-0.11141	679.0
1779	6.78767e+02	1.77900e+03	-0.111378	679.5
1780	6.79239e+02	1.78000e+03	-0.111347	680.0
1781	6.79727e+02	1.78100e+03	-0.111325	680.5
1782	6.80213e+02	1.78200e+03	-0.111312	681.0
1783	6.80702e+02	1.78300e+03	-0.111305	681.5
1784	6.81190e+02	1.78400e+03	-0.111328	682.0
1785	6.81681e+02	1.78500e+03	-0.11135	682.5
1786	6.82170e+02	1.78600e+03	-0.111379	683.0
1787	6.82659e+02	1.78700e+03	-0.111412	683.5
1788	6.83145e+02	1.78800e+03	-0.111469	684.0
1789	6.83627e+02	1.78900e+03	-0.11151	684.5
1790	6.84110e+02	1.79000e+03	-0.111545	685.0
1791	6.84600e+02	1.79100e+03	-0.111577	685.5
1792	6.85086e+02	1.79200e+03	-0.111594	686.0
1793	6.85553e+02	1.79300e+03	-0.11161	686.5
1794	6.86055e+02	1.79400e+03	-0.11162	687.0
1795	6.86254e+02	1.79500e+03	-0.111629	687.5
1796	6.86429e+02	1.79600e+03	-0.111616	688.0
1797	6.86707e+02	1.79700e+03	-0.11161	688.5
1798	6.87044e+02	1.79800e+03	-0.111603	689.0
1799	6.87388e+02	1.79900e+03	-0.111597	689.5
1800	6.87737e+02	1.80000e+03	-0.111589	690.0
1801	6.88065e+02	1.80100e+03	-0.111591	690.5
1802	6.88379e+02	1.80200e+03	-0.111602	691.0
1803	6.88686e+02	1.80300e+03	-0.11162	691.5
1804	6.88982e+02	1.80400e+03	-0.111656	692.0
1805	6.89270e+02	1.80500e+03	-0.111688	692.5
1806	6.89562e+02	1.80600e+03	-0.111717	693.0
1807	6.89819e+02	1.80700e+03	-0.111746	693.5
1808	6.90083e+02	1.80800e+03	-0.111777	694.0
1809	6.90345e+02	1.80900e+03	-0.111797	694.5
1810	6.90587e+02	1.81000e+03	-0.11181	695.0
1811	6.90834e+02	1.81100e+03	-0.111818	695.5
1812	6.91068e+02	1.81200e+03	-0.111798	696.0
1813	6.91298e+02	1.81300e+03	-0.111785	696.5
1814	6.91515e+02	1.81400e+03	-0.11177	697.0
1815	6.91736e+02	1.81500e+03	-0.111753	697.5
1816	6.91944e+02	1.81600e+03	-0.111721	698.0
1817	6.92140e+02	1.81700e+03	-0.111699	698.5
1818	6.92331e+02	1.81800e+03	-0.111681	699.0
1819	6.92521e+02	1.81900e+03	-0.111667	699.5
1820	6.92706e+02	1.82000e+03	-0.111664	700.0
1821	6.92893e+02	1.82100e+03	-0.111662	700.0
1822	6.93064e+02	1.82200e+03	-0.111663	700.0
1823	6.93236e+02	1.82300e+03	-0.111665	700.0
1824	6.93393e+02	1.82400e+03	-0.11168	700.0
1825	6.93552e+02	1.82500e+03	-0.111685	700.0
1826	6.93703e+02	1.82600e+03	-0.111686	700.0
1827	6.93856e+02	1.82700e+03	-0.111687	700.0
1828	6.93994e+02	1.82800e+03	-0.111682	700.0
1829	6.94145e+02	1.82900e+03	-0.111678	700.0
1830	6.94280e+02	1.83000e+03	-0.111674	700.0
1831	6.94417e+02	1.83100e+03	-0.111668	700.0
1832	6.94547e+02	1.83200e+03	-0.111658	700.0
1833	6.94675e+02	1.83300e+03	-0.111649	700.0
1834	6.94795e+02	1.83400e+03	-0.11164	700.0
1835	6.94926e+02	1.83500e+03	-0.111631	700.0
1836	6.95042e+02	1.83600e+03	-0.111618	700.0
1837	6.95153e+02	1.83700e+03	-0.111609	700.0
1838	6.95263e+02	1.83800e+03	-0.111605	700.0
1839	6.95384e+02	1.83900e+03	-0.111604	700.0
1840	6.95487e+02	1.84000e+03	-0.11161	700.0
1841	6.95594e+02	1.84100e+03	-0.111616	700.0
1842	6.95696e+02	1.84200e+03	-0.111623	700.0
1843	6.95790e+02	1.84300e+03	-0.111628	700.0
1844	6.95889e+02	1.84400e+03	-0.111635	700.0
1845	6.95974e+02	1.84500e+03	-0.111635	700.0
1846	6.96063e+02	1.84600e+03	-0.111635	700.0
1847	6.96149e+02	1.84700e+03	-0.111636	700.0
1848	6.96237e+02	1.84800e+03	-0.111627	700.0
1849	6.96324e+02	1.84900e+03	-0.111623	700.0
1850	6.96400e+02	1.85000e+03	-0.11162	700.0
1851	6.96476e+02	1.85100e+03	-0.111619	700.0
1852	6.96550e+02	1.85200e+03	-0.111629	700.0
1853	6.96629e+02	1.85300e+03	-0.111638	700.0
1854	6.96698e+02	1.85400e+03	-0.111647	700.0
1855	6.96762e+02	1.85500e+03	-0.111658	700.0
1856	6.96823e+02	1.85600e+03	-0.111683	700.0
1857	6.96894e+02	1.85700e+03	-0.111704	700.0
1858	6.96954e+02	1.85800e+03	-0.111727	700.0
1859	6.97023e+02	1.85900e+03	-0.11175	700.0
1860	6.97087e+02	1.86000e+03	-0.111774	700.0
1861	6.97144e+02	1.86100e+03	-0.111796	700.0
1862	6.97206e+02	1.86200e+03	-0.111817	700.0
1863	6.97261e+02	1.86300e+03	-0.111836	700.0
1864	6.97320e+02	1.86400e+03	-0.111842	700.0
1865	6.97377e+02	1.86500e+03	-0.111847	700.0
1866	6.97428e+02	1.86600e+03	-0.111848	700.0
1867	6.97478e+02	1.86700e+03	-0.111846	700.0
1868	6.97528e+02	1.86800e+03	-0.111828	700.0
1869	6.97580e+02	1.86900e+03	-0.111815	700.0
1870	6.97619e+02	1.87000e+03	-0.111801	700.0
1871	6.97674e+02	1.87100e+03	-0.111786	700.0
1872	6.97711e+02	1.87200e+03	-0.111766	700.0
1873	6.97768e+02	1.87300e+03	-0.111752	700.0
1874	6.97805e+02	1.87400e+03	-0.111739	700.0
1875	6.97844e+02	1.87500e+03	-0.111728	700.0
1876	6.97894e+02	1.87600e+03	-0.111723	700.0
1877	6.97929e+02	1.87700e+03	-0.111717	700.0
1878	6.97973e+02	1.87800e+03	-0.111711	700.0
1879	6.98007e+02	1.87900e+03	-0.111707	700.0
1880	6.98040e+02	1.88000e+03	-0.11171	700.0
1881	6.98076e+02	1.88100e+03	-0.111716	700.0
1882	6.98121e+02	1.88200e+03	-0.111724	700.0
1883	6.98149e+02	1.88300e+03	-0.111734	700.0
1884	6.98192e+02	1.88400e+03	-0.111751	700.0
1885	6.98211e+02	1.88500e+03	-0.111763	700.0
1886	6.98241e+02	1.88600e+03	-0.111775	700.0
1887	6.98277e+02	1.88700e+03	-0.111786	700.0
1888	6.98307e+02	1.88800e+03	-0.111796	700.0
1889	6.98337e+02	1.88900e+03	-0.111805	700.0
1890	6.98371e+02	1.89000e+03	-0.111812	700.0
1891	6.98391e+02	1.89100e+03	-0.111818	700.0
1892	6.98427e+02	1.89200e+03	-0.111817	700.0
1893	6.98458e+02	1.89300e+03	-0.111814	700.0
1894	6.98487e+02	1.89400e+03	-0.11181	700.0
1895	6.98501e+02	1.89500e+03	-0.111803	700.0
1896	6.98530e+02	1.89600e+03	-0.111787	700.0
1897	6.98557e+02	1.89700e+03	-0.111775	700.0
1898	6.98577e+02	1.89800e+03	-0.111763	700.0
1899	6.98608e+02	1.89900e+03	-0.111752	700.0
1900	6.98630e+02	1.90000e+03	-0.111741	700.0
1901	6.98650e+02	1.90100e+03	-0.111731	700.0
1902	6.98676e+02	1.90200e+03	-0.111723	700.0
1903	6.98695e+02	1.90300e+03	-0.111716	700.0
1904	6.98723e+02	1.90400e+03	-0.111713	700.0
1905	6.98735e+02	1.90500e+03	-0.11171	700.0
1906	6.98758e+02	1.90600e+03	-0.111706	700.0
1907	6.98782e+02	1.90700e+03	-0.111704	700.0
1908	6.98795e+02	1.90800e+03	-0.111705	700.0
1909	6.98820e+02	1.90900e+03	-0.111706	700.0
1910	6.98832e+02	1.91000e+03	-0.111709	700.0
1911	6.98857e+02	1.91100e+03	-0.111714	700.0
1912	6.98868e+02	1.91200e+03	-0.111727	700.0
1913	6.98883e+02	1.91300e+03	-0.11174	700.0
1914	6.98900e+02	1.91400e+03	-0.111754	700.0
1915	6.98916e+02	1.91500e+03	-0.111769	700.0
1916	6.98933e+02	1.91600e+03	-0.111789	700.0
1917	6.98950e+02	1.91700e+03	-0.111803	700.0
1918	6.98966e+02	1.91800e+03	-0.111815	700.0
1919	6.98979e+02	1.91900e+03	-0.111826	700.0
1920	6.98997e+02	1.92000e+03	-0.111827	700.0
1921	6.99010e+02	1.92100e+03	-0.111829	700.0
1922	6.99018e+02	1.92200e+03	-0.11183	700.0
1923	6.99032e+02	1.92300e+03	-0.111829	700.0
1924	6.99054e+02	1.92400e+03	-0.111817	700.0
1925	6.99061e+02	1.92500e+03	-0.111804	700.0
1926	6.99084e+02	1.92600e+03	-0.111791	700.0
1927	6.99087e+02	1.92700e+03	-0.111778	700.0
1928	6.99095e+02	1.92800e+03	-0.111763	700.0
1929	6.99112e+02	1.92900e+03	-0.111756	700.0
1930	6.99121e+02	1.93000e+03	-0.111754	700.0
1931	6.99133e+02	1.93100e+03	-0.111755	700.0
1932	6.99150e+02	1.93200e+03	-0.111776	700.0
1933	6.99162e+02	1.93300e+03	-0.111793	700.0
1934	6.99171e+02	1.93400e+03	-0.111812	700.0
1935	6.99180e+02	1.93500e+03	-0.111833	700.0
1936	6.99189e+02	1.93600e+03	-0.111866	700.0
1937	6.99199e+02	1.93700e+03	-0.11189	700.0
1938	6.99204e+02	1.93800e+03	-0.111912	700.0
1939	6.99222e+02	1.93900e+03	-0.111933	700.0
1940	6.99223e+02	1.94000e+03	-0.111946	700.0
1941	6.99237e+02	1.94100e+03	-0.111959	700.0
1942	6.99245e+02	1.94200e+03	-0.111971	700.0
1943	6.99253e+02	1.94300e+03	-0.111982	700.0
1944	6.99254e+02	1.94400e+03	-0.111984	700.0
1945	6.99267e+02	1.94500e+03	-0.111988	700.0
1946	6.99271e+02	1.94600e+03	-0.111991	700.0
1947	6.99276e+02	1.94700e+03	-0.111993	700.0
1948	6.99288e+02	1.94800e+03	-0.111987	700.0
1949	6.99302e+02	1.94900e+03	-0.111981	700.0
1950	6.99304e+02	1.95000e+03	-0.111973	700.0
1951	6.99315e+02	1.95100e+03	-0.111964	700.0
1952	6.99311e+02	1.95200e+03	-0.111944	700.0
1953	6.99324e+02	1.95300e+03	-0.111926	700.0
1954	6.99331e+02	1.95400e+03	-0.111903	700.0
1955	6.99326e+02	1.95500e+03	-0.111876	700.0
1956	6.99344e+02	1.95600e+03	-0.111843	700.0
1957	6.99342e+02	1.95700e+03	-0.111816	700.0
1958	6.99352e+02	1.95800e+03	-0.111791	700.0
1959	6.99368e+02	1.95900e+03	-0.111769	700.0
1960	6.99365e+02	1.96000e+03	-0.111753	700.0
1961	6.99365e+02	1.96100e+03	-0.11174	700.0
1962	6.99365e+02	1.96200e+03	-0.111731	700.0
1963	6.99379e+02	1.96300e+03	-0.111725	700.0
1964	6.99388e+02	1.96400e+03	-0.111732	700.0
1965	6.99396e+02	1.96500e+03	-0.111731	700.0
1966	6.99399e+02	1.96600e+03	-0.111725	700.0
1967	6.99402e+02	1.96700e+03	-0.111717	700.0
1968	6.99413e+02	1.96800e+03	-0.111705	700.0
1969	6.99415e+02	1.96900e+03	-0.111691	700.0
1970	6.99430e+02	1.97000e+03	-0.111671	700.0
1971	6.99423e+02	1.97100e+03	-0.111647	700.0
1972	6.99428e+02	1.97200e+03	-0.111604	700.0
1973	6.99437e+02	1.97300e+03	-0.111566	700.0
1974	6.99430e+02	1.97400e+03	-0.111528	700.0
1975	6.99432e+02	1.97500e+03	-0.111488	700.0
1976	6.99442e+02	1.97600e+03	-0.111443	700.0
1977	6.99445e+02	1.97700e+03	-0.111407	700.0
1978	6.99456e+02	1.97800e+03	-0.111378	700.0
1979	6.99456e+02	1.97900e+03	-0.111353	700.0
1980	6.99453e+02	1.98000e+03	-0.111353	700.0
1981	6.99463e+02	1.98100e+03	-0.111353	700.0
1982	6.99466e+02	1.98200e+03	-0.111359	700.0
1983	6.99463e+02	1.98300e+03	-0.111371	700.0
1984	6.99471e+02	1.98400e+03	-0.111411	700.0
1985	6.99469e+02	1.98500e+03	-0.111441	700.0
1986	6.99474e+02	1.98600e+03	-0.111471	700.0
1987	6.99472e+02	1.98700e+03	-0.111502	700.0
1988	6.99484e+02	1.98800e+03	-0.111538	700.0
1989	6.99488e+02	1.98900e+03	-0.111569	700.0
1990	6.99484e+02	1.99000e+03	-0.111597	700.0
1991	6.99490e+02	1.99100e+03	-0.111623	700.0
1992	6.99487e+02	1.99200e+03	-0.111643	700.0
1993	6.99500e+02	1.99300e+03	-0.111666	700.0
1994	6.99502e+02	1.99400e+03	-0.111687	700.0
1995	6.99505e+02	1.99500e+03	-0.111707	700.0
1996	6.99502e+02	1.99600e+03	-0.111721	700.0
1997	6.99505e+02	1.99700e+03	-0.111738	700.0
1998	6.99501e+02	1.99800e+03	-0.111755	700.0
1999	6.99508e+02	1.99900e+03	-0.111772	700.0
2000	6.99508e+02	2.00000e+03	-0.111784	700.0
2001	6.99518e+02	2.00100e+03	-0.111796	700.0
2002	6.99516e+02	2.00200e+03	-0.111807	700.0
2003	6.99515e+02	2.00300e+03	-0.111817	700.0
2004	6.99517e+02	2.00400e+03	-0.11182	700.0
2005	6.99531e+02	2.00500e+03	-0.111823	700.0
2006	6.99530e+02	2.00600e+03	-0.111824	700.0
2007	6.99530e+02	2.00700e+03	-0.111825	700.0
2008	6.99529e+02	2.00800e+03	-0.111818	700.0
2009	6.99533e+02	2.00900e+03	-0.111815	700.0
2010	6.99542e+02	2.01000e+03	-0.111814	700.0
2011	6.99538e+02	2.01100e+03	-0.111815	700.0
2012	6.99529e+02	2.01200e+03	-0.11182	700.0
2013	6.99530e+02	2.01300e+03	-0.111827	700.0
2014	6.99537e+02	2.01400e+03	-0.111834	700.0
2015	6.99548e+02	2.01500e+03	-0.11184	700.0
2016	6.99544e+02	2.01600e+03	-0.111847	700.0
2017	6.99540e+02	2.01700e+03	-0.111851	700.0
2018	6.99543e+02	2.01800e+03	-0.111854	700.0
2019	6.99551e+02	2.01900e+03	-0.111856	700.0
2020	6.99548e+02	2.02000e+03	-0.11185	700.0
2021	6.99551e+02	2.02100e+03	-0.111848	700.0
2022	6.99547e+02	2.02200e+03	-0.111849	700.0
2023	6.99553e+02	2.02300e+03	-0.111851	700.0
2024	6.99565e+02	2.02400e+03	-0.11186	700.0
2025	6.99562e+02	2.02500e+03	-0.111869	700.0
2026	6.99559e+02	2.02600e+03	-0.111881	700.0
2027	6.99549e+02	2.02700e+03	-0.111893	700.0
2028	6.99556e+02	2.02800e+03	-0.111915	700.0
2029	6.99565e+02	2.02900e+03	-0.111933	700.0
2030	6.99570e+02	2.03000e+03	-0.11195	700.0
2031	6.99564e+02	2.03100e+03	-0.111968	700.0
2032	6.99567e+02	2.03200e+03	-0.111986	700.0
2033	6.99557e+02	2.03300e+03	-0.112003	700.0
2034	6.99563e+02	2.03400e+03	-0.112018	700.0
2035	6.99568e+02	2.03500e+03	-0.112032	700.0
2036	6.99575e+02	2.03600e+03	-0.112039	700.0
2037	6.99569e+02	2.03700e+03	-0.112045	700.0
2038	6.99563e+02	2.03800e+03	-0.112049	700.0
2039	6.99572e+02	2.03900e+03	-0.112051	700.0
2040	6.99574e+02	2.04000e+03	-0.112042	700.0
2041	6.99572e+02	2.04100e+03	-0.112035	700.0
2042	6.99569e+02	2.04200e+03	-0.112024	700.0
2043	6.99569e+02	2.04300e+03	-0.112009	700.0
2044	6.99577e+02	2.04400e+03	-0.111988	700.0
2045	6.99567e+02	2.04500e+03	-0.111971	700.0
2046	6.99569e+02	2.04600e+03	-0.111955	700.0
2047	6.99562e+02	2.04700e+03	-0.11194	700.0
2048	6.99567e+02	2.04800e+03	-0.111924	700.0
2049	6.99571e+02	2.04900e+03	-0.111911	700.0
2050	6.99559e+02	2.05000e+03	-0.111902	700.0
2051	6.99562e+02	2.05100e+03	-0.111897	700.0
2052	6.99572e+02	2.05200e+03	-0.111906	700.0
2053	6.99565e+02	2.05300e+03	-0.111917	700.0
2054	6.99581e+02	2.05400e+03	-0.111933	700.0
2055	6.99571e+02	2.05500e+03	-0.111951	700.0
2056	6.99564e+02	2.05600e+03	-0.111986	700.0
2057	6.99566e+02	2.05700e+03	-0.112009	700.0
2058	6.99573e+02	2.05800e+03	-0.112026	700.0
2059	6.99578e+02	2.05900e+03	-0.112041	700.0
2060	6.99574e+02	2.06000e+03	-0.112038	700.0
2061	6.99573e+02	2.06100e+03	-0.112034	700.0
2062	6.99573e+02	2.06200e+03	-0.112028	700.0
2063	6.99573e+02	2.06300e+03	-0.11202	700.0
2064	6.99578e+02	2.06400e+03	-0.111999	700.0
2065	6.99582e+02	2.06500e+03	-0.111991	700.0
2066	6.99576e+02	2.06600e+03	-0.111989	700.0
2067	6.99577e+02	2.06700e+03	-0.111989	700.0
2068	6.99582e+02	2.06800e+03	-0.112003	700.0
2069	6.99577e+02	2.06900e+03	-0.112008	700.0
2070	6.99580e+02	2.07000e+03	-0.112009	700.0
2071	6.99584e+02	2.07100e+03	-0.11201	700.0
2072	6.99582e+02	2.07200e+03	-0.11201	700.0
2073	6.99580e+02	2.07300e+03	-0.112011	700.0
2074	6.99581e+02	2.07400e+03	-0.112014	700.0
2075	6.99578e+02	2.07500e+03	-0.112017	700.0
2076	6.99580e+02	2.07600e+03	-0.112023	700.0
2077	6.99572e+02	2.07700e+03	-0.11203	700.0
2078	6.99576e+02	2.07800e+03	-0.112038	700.0
2079	6.99579e+02	2.07900e+03	-0.112048	700.0
2080	6.99579e+02	2.08000e+03	-0.112065	700.0
2081	6.99579e+02	2.08100e+03	-0.112078	700.0
2082	6.99580e+02	2.08200e+03	-0.11209	700.0
2083	6.99582e+02	2.08300e+03	-0.112099	700.0
2084	6.99577e+02	2.08400e+03	-0.112098	700.0
2085	6.99577e+02	2.08500e+03	-0.112093	700.0
2086	6.99585e+02	2.08600e+03	-0.112084	700.0
2087	6.99578e+02	2.08700e+03	-0.11207	700.0
2088	6.99579e+02	2.08800e+03	-0.112029	700.0
2089	6.99577e+02	2.08900e+03	-0.111996	700.0
2090	6.99579e+02	2.09000e+03	-0.111964	700.0
2091	6.99583e+02	2.09100e+03	-0.111932	700.0
2092	6.99576e+02	2.09200e+03	-0.111893	700.0
2093	6.99585e+02	2.09300e+03	-0.111863	700.0
2094	6.99579e+02	2.09400e+03	-0.111838	700.0
2095	6.99573e+02	2.09500e+03	-0.111816	700.0
2096	6.99569e+02	2.09600e+03	-0.111813	700.0
2097	6.99570e+02	2.09700e+03	-0.111809	700.0
2098	6.99574e+02	2.09800e+03	-0.11181	700.0
2099	6.99570e+02	2.09900e+03	-0.111814	700.0
2100	6.99568e+02	2.10000e+03	-0.111839	700.0
2101	6.99572e+02	2.10100e+03	-0.111858	700.0
2102	6.99573e+02	2.10200e+03	-0.111879	700.0
2103	6.99570e+02	2.10300e+03	-0.111901	700.0
2104	6.99575e+02	2.10400e+03	-0.11193	700.0
2105	6.99584e+02	2.10500e+03	-0.111955	700.0
2106	6.99581e+02	2.10600e+03	-0.111977	700.0
2107	6.99570e+02	2.10700e+03	-0.111998	700.0
2108	6.99572e+02	2.10800e+03	-0.112011	700.0
2109	6.99574e+02	2.10900e+03	-0.112022	700.0
2110	6.99575e+02	2.11000e+03	-0.112029	700.0
2111	6.99576e+02	2.11100e+03	-0.112033	700.0
2112	6.99562e+02	2.11200e+03	-0.112023	700.0
2113	6.99566e+02	2.11300e+03	-0.112016	700.0
2114	6.99567e+02	2.11400e+03	-0.112006	700.0
2115	6.99562e+02	2.11500e+03	-0.111993	700.0
2116	6.99564e+02	2.11600e+03	-0.11197	700.0
2117	6.99567e+02	2.11700e+03	-0.111953	700.0
2118	6.99568e+02	2.11800e+03	-0.111935	700.0
2119	6.99561e+02	2.11900e+03	-0.111914	700.0
2120	6.99566e+02	2.12000e+03	-0.111892	700.0
2121	6.99563e+02	2.12100e+03	-0.111873	700.0
2122	6.99566e+02	2.12200e+03	-0.111857	700.0
2123	6.99555e+02	2.12300e+03	-0.111844	700.0
2124	6.99563e+02	2.12400e+03	-0.111839	700.0
2125	6.99561e+02	2.12500e+03	-0.111835	700.0
2126	6.99564e+02	2.12600e+03	-0.111835	700.0
2127	6.99555e+02	2.12700e+03	-0.111837	700.0
2128	6.99557e+02	2.12800e+03	-0.111854	700.0
2129	6.99559e+02	2.12900e+03	-0.111865	700.0
2130	6.99559e+02	2.13000e+03	-0.111873	700.0
2131	6.99557e+02	2.13100e+03	-0.111879	700.0
2132	6.99558e+02	2.13200e+03	-0.111884	700.0
2133	6.99556e+02	2.13300e+03	-0.111888	700.0
2134	6.99557e+02	2.13400e+03	-0.111893	700.0
2135	6.99551e+02	2.13500e+03	-0.111899	700.0
2136	6.99558e+02	2.13600e+03	-0.111906	700.0
2137	6.99562e+02	2.13700e+03	-0.111919	700.0
2138	6.99553e+02	2.13800e+03	-0.111938	700.0
2139	6.99551e+02	2.13900e+03	-0.111959	700.0
2140	6.99554e+02	2.14000e+03	-0.111996	700.0
2141	6.99554e+02	2.14100e+03	-0.112023	700.0
2142	6.99550e+02	2.14200e+03	-0.112045	700.0
2143	6.99550e+02	2.14300e+03	-0.112065	700.0
2144	6.99551e+02	2.14400e+03	-0.112078	700.0
2145	6.99553e+02	2.14500e+03	-0.112087	700.0
2146	6.99545e+02	2.14600e+03	-0.112092	700.0
2147	6.99550e+02	2.14700e+03	-0.112094	700.0
2148	6.99556e+02	2.14800e+03	-0.112078	700.0
2149	6.99549e+02	2.14900e+03	-0.11207	700.0
2150	6.99552e+02	2.15000e+03	-0.112062	700.0
2151	6.99543e+02	2.15100e+03	-0.112055	700.0
2152	6.99555e+02	2.15200e+03	-0.112043	700.0
2153	6.99554e+02	2.15300e+03	-0.112032	700.0
2154	6.99551e+02	2.15400e+03	-0.112021	700.0
2155	6.99560e+02	2.15500e+03	-0.112012	700.0
2156	6.99555e+02	2.15600e+03	-0.112009	700.0
2157	6.99553e+02	2.15700e+03	-0.112008	700.0
2158	6.99543e+02	2.15800e+03	-0.11201	700.0
2159	6.99545e+02	2.15900e+03	-0.112014	700.0
2160	6.99563e+02	2.16000e+03	-0.112029	700.0
2161	6.99551e+02	2.16100e+03	-0.112039	700.0
2162	6.99553e+02	2.16200e+03	-0.112049	700.0
2163	6.99554e+02	2.16300e+03	-0.112059	700.0
2164	6.99551e+02	2.16400e+03	-0.112068	700.0
2165	6.99547e+02	2.16500e+03	-0.112076	700.0
2166	6.99549e+02	2.16600e+03	-0.112082	700.0
2167	6.99547e+02	2.16700e+03	-0.112088	700.0
2168	6.99551e+02	2.16800e+03	-0.11209	700.0
2169	6.99548e+02	2.16900e+03	-0.112093	700.0
2170	6.99539e+02	2.17000e+03	-0.112095	700.0
2171	6.99536e+02	2.17100e+03	-0.112097	700.0
2172	6.99542e+02	2.17200e+03	-0.112097	700.0
2173	6.99547e+02	2.17300e+03	-0.112098	700.0
2174	6.99539e+02	2.17400e+03	-0.112099	700.0
2175	6.99541e+02	2.17500e+03	-0.1121	700.0
2176	6.99529e+02	2.17600e+03	-0.112099	700.0
2177	6.99539e+02	2.17700e+03	-0.1121	700.0
2178	6.99540e+02	2.17800e+03	-0.1121	700.0
2179	6.99531e+02	2.17900e+03	-0.1121	700.0
2180	6.99533e+02	2.18000e+03	-0.1121	700.0
2181	6.99526e+02	2.18100e+03	-0.112101	700.0
2182	6.99539e+02	2.18200e+03	-0.112103	700.0
2183	6.99531e+02	2.18300e+03	-0.112105	700.0
2184	6.99533e+02	2.18400e+03	-0.112111	700.0
2185	6.99529e+02	2.18500e+03	-0.112118	700.0
2186	6.99529e+02	2.18600e+03	-0.112126	700.0
2187	6.99526e+02	2.18700e+03	-0.112136	700.0
2188	6.99524e+02	2.18800e+03	-0.112153	700.0
2189	6.99530e+02	2.18900e+03	-0.112169	700.0
2190	6.99537e+02	2.19000e+03	-0.112184	700.0
2191	6.99527e+02	2.19100e+03	-0.1122	700.0
2192	6.99527e+02	2.19200e+03	-0.112215	700.0
2193	6.99527e+02	2.19300e+03	-0.112222	700.0
2194	6.99523e+02	2.19400e+03	-0.112226	700.0
2195	6.99525e+02	2.19500e+03	-0.112227	700.0
2196	6.99529e+02	2.19600e+03	-0.112212	700.0
2197	6.99520e+02	2.19700e+03	-0.112201	700.0
2198	6.99522e+02	2.19800e+03	-0.112191	700.0
2199	6.99529e+02	2.19900e+03	-0.112182	700.0
2200	6.99522e+02	2.20000e+03	-0.11217	700.0
2201	6.99520e+02	2.20100e+03	-0.112164	700.0
2202	6.99522e+02	2.20200e+03	-0.112162	700.0
2203	6.99521e+02	2.20300e+03	-0.112161	700.0
2204	6.99522e+02	2.20400e+03	-0.112172	700.0
2205	6.99519e+02	2.20500e+03	-0.112176	700.0
2206	6.99512e+02	2.20600e+03	-0.112176	700.0
2207	6.99518e+02	2.20700e+03	-0.112172	700.0
2208	6.99511e+02	2.20800e+03	-0.112162	700.0
2209	6.99517e+02	2.20900e+03	-0.11215	700.0
2210	6.99509e+02	2.21000e+03	-0.112136	700.0
2211	6.99511e+02	2.21100e+03	-0.11212	700.0
2212	6.99508e+02	2.21200e+03	-0.112088	700.0
2213	6.99503e+02	2.21300e+03	-0.11206	700.0
2214	6.99511e+02	2.21400e+03	-0.112033	700.0
2215	6.99510e+02	2.21500e+03	-0.112004	700.0
2216	6.99502e+02	2.21600e+03	-0.111973	700.0
2217	6.99507e+02	2.21700e+03	-0.111947	700.0
2218	6.99511e+02	2.21800e+03	-0.111925	700.0
2219	6.99506e+02	2.21900e+03	-0.111906	700.0
2220	6.99502e+02	2.22000e+03	-0.111903	700.0
2221	6.99506e+02	2.22100e+03	-0.111903	700.0
2222	6.99509e+02	2.22200e+03	-0.111909	700.0
2223	6.99506e+02	2.22300e+03	-0.111921	700.0
2224	6.99503e+02	2.22400e+03	-0.11196	700.0
2225	6.99506e+02	2.22500e+03	-0.111992	700.0
2226	6.99507e+02	2.22600e+03	-0.112026	700.0
2227	6.99509e+02	2.22700e+03	-0.112062	700.0
2228	6.99516e+02	2.22800e+03	-0.112111	700.0
2229	6.99503e+02	2.22900e+03	-0.112151	700.0
2230	6.99501e+02	2.23000e+03	-0.112188	700.0
2231	6.99505e+02	2.23100e+03	-0.112225	700.0
2232	6.99504e+02	2.23200e+03	-0.112253	700.0
2233	6.99503e+02	2.23300e+03	-0.112281	700.0
2234	6.99492e+02	2.23400e+03	-0.112307	700.0
2235	6.99496e+02	2.23500e+03	-0.112331	700.0
2236	6.99503e+02	2.23600e+03	-0.112341	700.0
2237	6.99493e+02	2.23700e+03	-0.112348	700.0
2238	6.99492e+02	2.23800e+03	-0.112351	700.0
2239	6.99492e+02	2.23900e+03	-0.112351	700.0
2240	6.99493e+02	2.24000e+03	-0.112337	700.0
2241	6.99502e+02	2.24100e+03	-0.11233	700.0
2242	6.99489e+02	2.24200e+03	-0.112324	700.0
2243	6.99492e+02	2.24300e+03	-0.112318	700.0
2244	6.99495e+02	2.24400e+03	-0.112312	700.0
2245	6.99491e+02	2.24500e+03	-0.112308	700.0
2246	6.99492e+02	2.24600e+03	-0.112305	700.0
2247	6.99481e+02	2.24700e+03	-0.112302	700.0
2248	6.99488e+02	2.24800e+03	-0.112302	700.0
2249	6.99495e+02	2.24900e+03	-0.112301	700.0
2250	6.99497e+02	2.25000e+03	-0.112301	700.0
2251	6.99499e+02	2.25100e+03	-0.1123	700.0
2252	6.99490e+02	2.25200e+03	-0.1123	700.0
2253	6.99491e+02	2.25300e+03	-0.1123	700.0
2254	6.99487e+02	2.25400e+03	-0.1123	700.0
2255	6.99485e+02	2.25500e+03	-0.1123	700.0
2256	6.99486e+02	2.25600e+03	-0.1123	700.0
2257	6.99495e+02	2.25700e+03	-0.1123	700.0
2258	6.99490e+02	2.25800e+03	-0.1123	700.0
2259	6.99495e+02	2.25900e+03	-0.112301	700.0
2260	6.99483e+02	2.26000e+03	-0.112303	700.0
2261	6.99480e+02	2.26100e+03	-0.112307	700.0
2262	6.99491e+02	2.26200e+03	-0.112311	700.0
2263	6.99483e+02	2.26300e+03	-0.112315	700.0
2264	6.99482e+02	2.26400e+03	-0.112321	700.0
2265	6.99479e+02	2.26500e+03	-0.112327	700.0
2266	6.99485e+02	2.26600e+03	-0.112335	700.0
2267	6.99488e+02	2.26700e+03	-0.112344	700.0
2268	6.99477e+02	2.26800e+03	-0.112357	700.0
2269	6.99483e+02	2.26900e+03	-0.112375	700.0
2270	6.99479e+02	2.27000e+03	-0.112396	700.0
2271	6.99480e+02	2.27100e+03	-0.11242	700.0
2272	6.99485e+02	2.27200e+03	-0.112448	700.0
2273	6.99472e+02	2.27300e+03	-0.112469	700.0
2274	6.99475e+02	2.27400e+03	-0.112486	700.0
2275	6.99473e+02	2.27500e+03	-0.1125	700.0
2276	6.99471e+02	2.27600e+03	-0.1125	700.0
2277	6.99467e+02	2.27700e+03	-0.112501	700.0
2278	6.99474e+02	2.27800e+03	-0.112499	700.0
2279	6.99478e+02	2.27900e+03	-0.112494	700.0
2280	6.99476e+02	2.28000e+03	-0.112474	700.0
2281	6.99479e+02	2.28100e+03	-0.112458	700.0
2282	6.99476e+02	2.28200e+03	-0.112443	700.0
2283	6.99471e+02	2.28300e+03	-0.112427	700.0
2284	6.99476e+02	2.28400e+03	-0.112408	700.0
2285	6.99483e+02	2.28500e+03	-0.112393	700.0
2286	6.99477e+02	2.28600e+03	-0.112377	700.0
2287	6.99482e+02	2.28700e+03	-0.112363	700.0
2288	6.99477e+02	2.28800e+03	-0.112361	700.0
2289	6.99481e+02	2.28900e+03	-0.112363	700.0
2290	6.99473e+02	2.29000e+03	-0.11237	700.0
2291	6.99469e+02	2.29100e+03	-0.112381	700.0
2292	6.99468e+02	2.29200e+03	-0.112413	700.0
2293	6.99466e+02	2.29300e+03	-0.112441	700.0
2294	6.99479e+02	2.29400e+03	-0.112469	700.0
2295	6.99469e+02	2.29500e+03	-0.112499	700.0
2296	6.99463e+02	2.29600e+03	-0.112537	700.0
2297	6.99471e+02	2.29700e+03	-0.112567	700.0
2298	6.99472e+02	2.29800e+03	-0.112594	700.0
2299	6.99474e+02	2.29900e+03	-0.112619	700.0
2300	6.99484e+02	2.30000e+03	-0.112626	700.0
2301	6.99471e+02	2.30100e+03	-0.112632	700.0
2302	6.99465e+02	2.30200e+03	-0.112633	700.0
2303	6.99472e+02	2.30300e+03	-0.11263	700.0
2304	6.99474e+02	2.30400e+03	-0.112599	700.0
2305	6.99478e+02	2.30500e+03	-0.112577	700.0
2306	6.99469e+02	2.30600e+03	-0.112555	700.0
2307	6.99465e+02	2.30700e+03	-0.112533	700.0
2308	6.99466e+02	2.30800e+03	-0.112503	700.0
2309	6.99458e+02	2.30900e+03	-0.11248	700.0
2310	6.99464e+02	2.31000e+03	-0.112461	700.0
2311	6.99464e+02	2.31100e+03	-0.112443	700.0
2312	6.99461e+02	2.31200e+03	-0.112438	700.0
2313	6.99459e+02	2.31300e+03	-0.112433	700.0
2314	6.99467e+02	2.31400e+03	-0.112434	700.0
2315	6.99468e+02	2.31500e+03	-0.112437	700.0
2316	6.99458e+02	2.31600e+03	-0.112451	700.0
2317	6.99455e+02	2.31700e+03	-0.11246	700.0
2318	6.99464e+02	2.31800e+03	-0.112468	700.0
2319	6.99450e+02	2.31900e+03	-0.112475	700.0
2320	6.99452e+02	2.32000e+03	-0.112483	700.0
2321	6.99453e+02	2.32100e+03	-0.112487	700.0
2322	6.99450e+02	2.32200e+03	-0.112489	700.0
2323	6.99456e+02	2.32300e+03	-0.11249	700.0
2324	6.99451e+02	2.32400e+03	-0.112483	700.0
2325	6.99453e+02	2.32500e+03	-0.112477	700.0
2326	6.99450e+02	2.32600e+03	-0.112469	700.0
2327	6.99445e+02	2.32700e+03	-0.112457	700.0
2328	6.99457e+02	2.32800e+03	-0.112434	700.0
2329	6.99459e+02	2.32900e+03	-0.112415	700.0
2330	6.99452e+02	2.33000e+03	-0.112398	700.0
2331	6.99443e+02	2.33100e+03	-0.112383	700.0
2332	6.99441e+02	2.33200e+03	-0.112371	700.0
2333	6.99451e+02	2.33300e+03	-0.112365	700.0
2334	6.99448e+02	2.33400e+03	-0.112361	700.0
2335	6.99446e+02	2.33500e+03	-0.112356	700.0
2336	6.99441e+02	2.33600e+03	-0.112366	700.0
2337	6.99445e+02	2.33700e+03	-0.112369	700.0
2338	6.99448e+02	2.33800e+03	-0.112372	700.0
2339	6.99445e+02	2.33900e+03	-0.112376	700.0
2340	6.99450e+02	2.34000e+03	-0.11238	700.0
2341	6.99444e+02	2.34100e+03	-0.112386	700.0
2342	6.99443e+02	2.34200e+03	-0.112394	700.0
2343	6.99443e+02	2.34300e+03	-0.112403	700.0
2344	6.99448e+02	2.34400e+03	-0.112418	700.0
2345	6.99443e+02	2.34500e+03	-0.11243	700.0
2346	6.99438e+02	2.34600e+03	-0.112441	700.0
2347	6.99437e+02	2.34700e+03	-0.112452	700.0
2348	6.99442e+02	2.34800e+03	-0.112462	700.0
2349	6.99445e+02	2.34900e+03	-0.112467	700.0
2350	6.99444e+02	2.35000e+03	-0.112467	700.0
2351	6.99443e+02	2.35100e+03	-0.112464	700.0
2352	6.99445e+02	2.35200e+03	-0.112451	700.0
2353	6.99436e+02	2.35300e+03	-0.112443	700.0
2354	6.99438e+02	2.35400e+03	-0.112436	700.0
2355	6.99442e+02	2.35500e+03	-0.112429	700.0
2356	6.99434e+02	2.35600e+03	-0.112423	700.0
2357	6.99433e+02	2.35700e+03	-0.11242	700.0
2358	6.99440e+02	2.35800e+03	-0.112419	700.0
2359	6.99433e+02	2.35900e+03	-0.112419	700.0
2360	6.99434e+02	2.36000e+03	-0.112423	700.0
2361	6.99432e+02	2.36100e+03	-0.112421	700.0
2362	6.99433e+02	2.36200e+03	-0.11242	700.0
2363	6.99430e+02	2.36300e+03	-0.11242	700.0
2364	6.99429e+02	2.36400e+03	-0.112421	700.0
2365	6.99437e+02	2.36500e+03	-0.112428	700.0
2366	6.99437e+02	2.36600e+03	-0.112439	700.0
2367	6.99433e+02	2.36700e+03	-0.112452	700.0
2368	6.99427e+02	2.36800e+03	-0.112481	700.0
2369	6.99438e+02	2.36900e+03	-0.112503	700.0
2370	6.99441e+02	2.37000e+03	-0.112524	700.0
2371	6.99435e+02	2.37100e+03	-0.112545	700.0
2372	6.99438e+02	2.37200e+03	-0.112563	700.0
2373	6.99435e+02	2.37300e+03	-0.112574	700.0
2374	6.99431e+02	2.37400e+03	-0.112581	700.0
2375	6.99436e+02	2.37500e+03	-0.112585	700.0
2376	6.99444e+02	2.37600e+03	-0.112568	700.0
2377	6.99433e+02	2.37700e+03	-0.112555	700.0
2378	6.99431e+02	2.37800e+03	-0.11254	700.0
2379	6.99432e+02	2.37900e+03	-0.112523	700.0
2380	6.99438e+02	2.38000e+03	-0.112501	700.0
2381	6.99437e+02	2.38100e+03	-0.112488	700.0
2382	6.99439e+02	2.38200e+03	-0.112478	700.0
2383	6.99434e+02	2.38300e+03	-0.112468	700.0
2384	6.99425e+02	2.38400e+03	-0.112472	700.0
2385	6.99430e+02	2.38500e+03	-0.112471	700.0
2386	6.99429e+02	2.38600e+03	-0.112472	700.0
2387	6.99430e+02	2.38700e+03	-0.112473	700.0
2388	6.99427e+02	2.38800e+03	-0.112475	700.0
2389	6.99424e+02	2.38900e+03	-0.112473	700.0
2390	6.99421e+02	2.39000e+03	-0.112472	700.0
2391	6.99416e+02	2.39100e+03	-0.112472	700.0
2392	6.99422e+02	2.39200e+03	-0.112474	700.0
2393	6.99425e+02	2.39300e+03	-0.11248	700.0
2394	6.99422e+02	2.39400e+03	-0.112488	700.0
2395	6.99417e+02	2.39500e+03	-0.112498	700.0
2396	6.99417e+02	2.39600e+03	-0.112515	700.0
2397	6.99414e+02	2.39700e+03	-0.112525	700.0
2398	6.99418e+02	2.39800e+03	-0.112533	700.0
2399	6.99414e+02	2.39900e+03	-0.11254	700.0
2400	6.99419e+02	2.40000e+03	-0.11254	700.0
2401	6.99411e+02	2.40100e+03	-0.112542	700.0
2402	6.99422e+02	2.40200e+03	-0.112545	700.0
2403	6.99418e+02	2.40300e+03	-0.112547	700.0
2404	6.99417e+02	2.40400e+03	-0.11255	700.0
2405	6.99427e+02	2.40500e+03	-0.112555	700.0
2406	6.99422e+02	2.40600e+03	-0.112561	700.0
2407	6.99418e+02	2.40700e+03	-0.112569	700.0
2408	6.99410e+02	2.40800e+03	-0.112583	700.0
2409	6.99412e+02	2.40900e+03	-0.112594	700.0
2410	6.99414e+02	2.41000e+03	-0.112603	700.0
2411	6.99415e+02	2.41100e+03	-0.112609	700.0
2412	6.99414e+02	2.41200e+03	-0.112609	700.0
2413	6.99414e+02	2.41300e+03	-0.112607	700.0
2414	6.99411e+02	2.41400e+03	-0.112604	700.0
2415	6.99417e+02	2.41500e+03	-0.112599	700.0
2416	6.99416e+02	2.41600e+03	-0.112581	700.0
2417	6.99414e+02	2.41700e+03	-0.112569	700.0
2418	6.99414e+02	2.41800e+03	-0.112559	700.0
2419	6.99410e+02	2.41900e+03	-0.112548	700.0
2420	6.99412e+02	2.42000e+03	-0.112539	700.0
2421	6.99408e+02	2.42100e+03	-0.112531	700.0
2422	6.99413e+02	2.42200e+03	-0.112524	700.0
2423	6.99407e+02	2.42300e+03	-0.112518	700.0
2424	6.99410e+02	2.42400e+03	-0.112518	700.0
2425	6.99405e+02	2.42500e+03	-0.11252	700.0
2426	6.99406e+02	2.42600e+03	-0.11253	700.0
2427	6.99406e+02	2.42700e+03	-0.112544	700.0
2428	6.99404e+02	2.42800e+03	-0.112573	700.0
2429	6.99417e+02	2.42900e+03	-0.112594	700.0
2430	6.99403e+02	2.43000e+03	-0.112613	700.0
2431	6.99405e+02	2.43100e+03	-0.112631	700.0
2432	6.99414e+02	2.43200e+03	-0.112654	700.0
2433	6.99403e+02	2.43300e+03	-0.112673	700.0
2434	6.99404e+02	2.43400e+03	-0.112689	700.0
2435	6.99412e+02	2.43500e+03	-0.112703	700.0
2436	6.99412e+02	2.43600e+03	-0.112706	700.0
2437	6.99408e+02	2.43700e+03	-0.11271	700.0
2438	6.99403e+02	2.43800e+03	-0.112712	700.0
2439	6.99408e+02	2.43900e+03	-0.112711	700.0
2440	6.99414e+02	2.44000e+03	-0.1127	700.0
2441	6.99406e+02	2.44100e+03	-0.112692	700.0
2442	6.99404e+02	2.44200e+03	-0.112686	700.0
2443	6.99406e+02	2.44300e+03	-0.112679	700.0
2444	6.99400e+02	2.44400e+03	-0.112673	700.0
2445	6.99400e+02	2.44500e+03	-0.112671	700.0
2446	6.99397e+02	2.44600e+03	-0.11267	700.0
2447	6.99398e+02	2.44700e+03	-0.11267	700.0
2448	6.99393e+02	2.44800e+03	-0.112677	700.0
2449	6.99403e+02	2.44900e+03	-0.112681	700.0
2450	6.99409e+02	2.45000e+03	-0.112684	700.0
2451	6.99395e+02	2.45100e+03	-0.112687	700.0
2452	6.99399e+02	2.45200e+03	-0.11269	700.0
2453	6.99400e+02	2.45300e+03	-0.112693	700.0
2454	6.99397e+02	2.45400e+03	-0.112695	700.0
2455	6.99402e+02	2.45500e+03	-0.112697	700.0
2456	6.99413e+02	2.45600e+03	-0.112697	700.0
2457	6.99396e+02	2.45700e+03	-0.112697	700.0
2458	6.99398e+02	2.45800e+03	-0.112693	700.0
2459	6.99400e+02	2.45900e+03	-0.112685	700.0
2460	6.99395e+02	2.46000e+03	-0.112672	700.0
2461	6.99392e+02	2.46100e+03	-0.112661	700.0
2462	6.99401e+02	2.46200e+03	-0.11265	700.0
2463	6.99407e+02	2.46300e+03	-0.11264	700.0
2464	6.99408e+02	2.46400e+03	-0.112628	700.0
2465	6.99398e+02	2.46500e+03	-0.112621	700.0
2466	6.99404e+02	2.46600e+03	-0.112617	700.0
2467	6.99396e+02	2.46700e+03	-0.112616	700.0
2468	6.99401e+02	2.46800e+03	-0.112625	700.0
2469	6.99403e+02	2.46900e+03	-0.112632	700.0
2470	6.99404e+02	2.47000e+03	-0.112639	700.0
2471	6.99402e+02	2.47100e+03	-0.112646	700.0
2472	6.99400e+02	2.47200e+03	-0.112659	700.0
2473	6.99404e+02	2.47300e+03	-0.11267	700.0
2474	6.99402e+02	2.47400e+03	-0.112681	700.0
2475	6.99403e+02	2.47500e+03	-0.112691	700.0
2476	6.99398e+02	2.47600e+03	-0.112696	700.0
2477	6.99394e+02	2.47700e+03	-0.112698	700.0
2478	6.99393e+02	2.47800e+03	-0.112698	700.0
2479	6.99399e+02	2.47900e+03	-0.112697	700.0
2480	6.99398e+02	2.48000e+03	-0.112686	700.0
2481	6.99397e+02	2.48100e+03	-0.112679	700.0
2482	6.99397e+02	2.48200e+03	-0.112669	700.0
2483	6.99396e+02	2.48300e+03	-0.112657	700.0
2484	6.99405e+02	2.48400e+03	-0.112641	700.0
2485	6.99390e+02	2.48500e+03	-0.11263	700.0
2486	6.99388e+02	2.48600e+03	-0.112626	700.0
2487	6.99401e+02	2.48700e+03	-0.112624	700.0
2488	6.99392e+02	2.48800e+03	-0.112629	700.0
2489	6.99396e+02	2.48900e+03	-0.112633	700.0
2490	6.99393e+02	2.49000e+03	-0.112635	700.0
2491	6.99392e+02	2.49100e+03	-0.112634	700.0
2492	6.99397e+02	2.49200e+03	-0.112637	700.0
2493	6.99398e+02	2.49300e+03	-0.112635	700.0
2494	6.99394e+02	2.49400e+03	-0.112631	700.0
2495	6.99399e+02	2.49500e+03	-0.112628	700.0
2496	6.99395e+02	2.49600e+03	-0.112616	700.0
2497	6.99385e+02	2.49700e+03	-0.11261	700.0
2498	6.99392e+02	2.49800e+03	-0.112606	700.0
2499	6.99390e+02	2.49900e+03	-0.112603	700.0
2500	6.99397e+02	2.50000e+03	-0.112606	700.0
2501	6.99395e+02	2.50100e+03	-0.112608	700.0
2502	6.99396e+02	2.50200e+03	-0.112612	700.0
2503	6.99395e+02	2.50300e+03	-0.112616	700.0
2504	6.99386e+02	2.50400e+03	-0.112632	700.0
2505	6.99389e+02	2.50500e+03	-0.11265	700.0
2506	6.99394e+02	2.50600e+03	-0.11267	700.0
2507	6.99392e+02	2.50700e+03	-0.11269	700.0
2508	6.99400e+02	2.50800e+03	-0.112717	700.0
2509	6.99394e+02	2.50900e+03	-0.112732	700.0
2510	6.99389e+02	2.51000e+03	-0.112739	700.0
2511	6.99387e+02	2.51100e+03	-0.112743	700.0
2512	6.99388e+02	2.51200e+03	-0.11273	700.0
2513	6.99393e+02	2.51300e+03	-0.112722	700.0
2514	6.99393e+02	2.51400e+03	-0.112714	700.0
2515	6.99389e+02	2.51500e+03	-0.112704	700.0
2516	6.99385e+02	2.51600e+03	-0.11269	700.0
2517	6.99388e+02	2.51700e+03	-0.112686	700.0
2518	6.99386e+02	2.51800e+03	-0.112687	700.0
2519	6.99388e+02	2.51900e+03	-0.11269	700.0
2520	6.99397e+02	2.52000e+03	-0.112702	700.0
2521	6.99399e+02	2.52100e+03	-0.112706	700.0
2522	6.99395e+02	2.52200e+03	-0.112707	700.0
2523	6.99398e+02	2.52300e+03	-0.112708	700.0
2524	6.99391e+02	2.52400e+03	-0.112706	700.0
2525	6.99392e+02	2.52500e+03	-0.112705	700.0
2526	6.99388e+02	2.52600e+03	-0.112704	700.0
2527	6.99395e+02	2.52700e+03	-0.112703	700.0
2528	6.99391e+02	2.52800e+03	-0.1127	700.0
2529	6.99388e+02	2.52900e+03	-0.112699	700.0
2530	6.99389e+02	2.53000e+03	-0.112699	700.0
2531	6.99396e+02	2.53100e+03	-0.112701	700.0
2532	6.99393e+02	2.53200e+03	-0.112712	700.0
2533	6.99392e+02	2.53300e+03	-0.112725	700.0
2534	6.99396e+02	2.53400e+03	-0.112736	700.0
2535	6.99391e+02	2.53500e+03	-0.112745	700.0
2536	6.99392e+02	2.53600e+03	-0.11276	700.0
2537	6.99396e+02	2.53700e+03	-0.112769	700.0
2538	6.99389e+02	2.53800e+03	-0.112776	700.0
2539	6.99385e+02	2.53900e+03	-0.112783	700.0
2540	6.99394e+02	2.54000e+03	-0.112777	700.0
2541	6.99392e+02	2.54100e+03	-0.112773	700.0
2542	6.99385e+02	2.54200e+03	-0.112765	700.0
2543	6.99386e+02	2.54300e+03	-0.112757	700.0
2544	6.99392e+02	2.54400e+03	-0.112751	700.0
2545	6.99378e+02	2.54500e+03	-0.112751	700.0
2546	6.99398e+02	2.54600e+03	-0.112754	700.0
2547	6.99392e+02	2.54700e+03	-0.112758	700.0
2548	6.99384e+02	2.54800e+03	-0.112774	700.0
2549	6.99383e+02	2.54900e+03	-0.112784	700.0
2550	6.99379e+02	2.55000e+03	-0.112793	700.0
2551	6.99380e+02	2.55100e+03	-0.1128	700.0
2552	6.99387e+02	2.55200e+03	-0.112804	700.0
2553	6.99388e+02	2.55300e+03	-0.112802	700.0
2554	6.99385e+02	2.55400e+03	-0.112793	700.0
2555	6.99375e+02	2.55500e+03	-0.112778	700.0
2556	6.99375e+02	2.55600e+03	-0.112747	700.0
2557	6.99388e+02	2.55700e+03	-0.112722	700.0
2558	6.99389e+02	2.55800e+03	-0.112697	700.0
2559	6.99380e+02	2.55900e+03	-0.112673	700.0
2560	6.99376e+02	2.56000e+03	-0.112646	700.0
2561	6.99380e+02	2.56100e+03	-0.112627	700.0
2562	6.99381e+02	2.56200e+03	-0.112613	700.0
2563	6.99380e+02	2.56300e+03	-0.112601	700.0
2564	6.99380e+02	2.56400e+03	-0.112607	700.0
2565	6.99387e+02	2.56500e+03	-0.11261	700.0
2566	6.99394e+02	2.56600e+03	-0.112617	700.0
2567	6.99386e+02	2.56700e+03	-0.112626	700.0
2568	6.99385e+02	2.56800e+03	-0.112652	700.0
2569	6.99388e+02	2.56900e+03	-0.112674	700.0
2570	6.99389e+02	2.57000e+03	-0.112698	700.0
2571	6.99389e+02	2.57100e+03	-0.112723	700.0
2572	6.99393e+02	2.57200e+03	-0.112755	700.0
2573	6.99388e+02	2.57300e+03	-0.112782	700.0
2574	6.99387e+02	2.57400e+03	-0.112806	700.0
2575	6.99392e+02	2.57500e+03	-0.11283	700.0
2576	6.99380e+02	2.57600e+03	-0.112848	700.0
2577	6.99382e+02	2.57700e+03	-0.112867	700.0
2578	6.99393e+02	2.57800e+03	-0.112884	700.0
2579	6.99391e+02	2.57900e+03	-0.1129	700.0
2580	6.99391e+02	2.58000e+03	-0.11291	700.0
2581	6.99390e+02	2.58100e+03	-0.112919	700.0
2582	6.99386e+02	2.58200e+03	-0.112926	700.0
2583	6.99391e+02	2.58300e+03	-0.112931	700.0
2584	6.99383e+02	2.58400e+03	-0.112925	700.0
2585	6.99389e+02	2.58500e+03	-0.112919	700.0
2586	6.99393e+02	2.58600e+03	-0.112909	700.0
2587	6.99383e+02	2.58700e+03	-0.112898	700.0
2588	6.99381e+02	2.58800e+03	-0.112874	700.0
2589	6.99382e+02	2.58900e+03	-0.112855	700.0
2590	6.99383e+02	2.59000e+03	-0.11284	700.0
2591	6.99380e+02	2.59100e+03	-0.112829	700.0
2592	6.99382e+02	2.59200e+03	-0.112824	700.0
2593	6.99384e+02	2.59300e+03	-0.112823	700.0
2594	6.99389e+02	2.59400e+03	-0.112825	700.0
2595	6.99383e+02	2.59500e+03	-0.112828	700.0
2596	6.99373e+02	2.59600e+03	-0.112847	700.0
2597	6.99371e+02	2.59700e+03	-0.112858	700.0
2598	6.99393e+02	2.59800e+03	-0.112866	700.0
2599	6.99386e+02	2.59900e+03	-0.112875	700.0
2600	6.99385e+02	2.60000e+03	-0.112881	700.0
2601	6.99373e+02	2.60100e+03	-0.112885	700.0
2602	6.99373e+02	2.60200e+03	-0.112886	700.0
2603	6.99379e+02	2.60300e+03	-0.112885	700.0
2604	6.99375e+02	2.60400e+03	-0.112882	700.0
2605	6.99374e+02	2.60500e+03	-0.112886	700.0
2606	6.99381e+02	2.60600e+03	-0.112894	700.0
2607	6.99374e+02	2.60700e+03	-0.112903	700.0
2608	6.99376e+02	2.60800e+03	-0.112911	700.0
2609	6.99378e+02	2.60900e+03	-0.112913	700.0
2610	6.99379e+02	2.61000e+03	-0.112915	700.0
2611	6.99376e+02	2.61100e+03	-0.112916	700.0
2612	6.99371e+02	2.61200e+03	-0.112908	700.0
2613	6.99386e+02	2.61300e+03	-0.112903	700.0
2614	6.99381e+02	2.61400e+03	-0.112898	700.0
2615	6.99372e+02	2.61500e+03	-0.112892	700.0
2616	6.99373e+02	2.61600e+03	-0.112884	700.0
2617	6.99380e+02	2.61700e+03	-0.112879	700.0
2618	6.99383e+02	2.61800e+03	-0.112879	700.0
2619	6.99371e+02	2.61900e+03	-0.112882	700.0
2620	6.99379e+02	2.62000e+03	-0.112885	700.0
2621	6.99377e+02	2.62100e+03	-0.112884	700.0
2622	6.99379e+02	2.62200e+03	-0.112883	700.0
2623	6.99373e+02	2.62300e+03	-0.112882	700.0
2624	6.99376e+02	2.62400e+03	-0.112883	700.0
2625	6.99374e+02	2.62500e+03	-0.112886	700.0
2626	6.99378e+02	2.62600e+03	-0.112892	700.0
2627	6.99385e+02	2.62700e+03	-0.1129	700.0
2628	6.99376e+02	2.62800e+03	-0.112917	700.0
2629	6.99373e+02	2.62900e+03	-0.112932	700.0
2630	6.99373e+02	2.63000e+03	-0.112946	700.0
2631	6.99386e+02	2.63100e+03	-0.112961	700.0
2632	6.99381e+02	2.63200e+03	-0.112977	700.0
2633	6.99382e+02	2.63300e+03	-0.112989	700.0
2634	6.99382e+02	2.63400e+03	-0.112999	700.0
2635	6.99376e+02	2.63500e+03	-0.113007	700.0
2636	6.99374e+02	2.63600e+03	-0.113006	700.0
2637	6.99372e+02	2.63700e+03	-0.113006	700.0
2638	6.99377e+02	2.63800e+03	-0.113004	700.0
2639	6.99382e+02	2.63900e+03	-0.113	700.0
2640	6.99388e+02	2.64000e+03	-0.112987	700.0
2641	6.99373e+02	2.64100e+03	-0.112974	700.0
2642	6.99383e+02	2.64200e+03	-0.11296	700.0
2643	6.99374e+02	2.64300e+03	-0.112944	700.0
2644	6.99381e+02	2.64400e+03	-0.112922	700.0
2645	6.99387e+02	2.64500e+03	-0.112905	700.0
2646	6.99385e+02	2.64600e+03	-0.11289	700.0
2647	6.99381e+02	2.64700e+03	-0.112879	700.0
2648	6.99370e+02	2.64800e+03	-0.112885	700.0
2649	6.99374e+02	2.64900e+03	-0.112893	700.0
2650	6.99384e+02	2.65000e+03	-0.112905	700.0
2651	6.99385e+02	2.65100e+03	-0.112919	700.0
2652	6.99382e+02	2.65200e+03	-0.112953	700.0
2653	6.99377e+02	2.65300e+03	-0.112971	700.0
2654	6.99380e+02	2.65400e+03	-0.112982	700.0
2655	6.99378e+02	2.65500e+03	-0.11299	700.0
2656	6.99374e+02	2.65600e+03	-0.112985	700.0
2657	6.99374e+02	2.65700e+03	-0.11298	700.0
2658	6.99377e+02	2.65800e+03	-0.112969	700.0
2659	6.99388e+02	2.65900e+03	-0.112955	700.0
2660	6.99368e+02	2.66000e+03	-0.112929	700.0
2661	6.99366e+02	2.66100e+03	-0.112916	700.0
2662	6.99376e+02	2.66200e+03	-0.112908	700.0
2663	6.99379e+02	2.66300e+03	-0.112902	700.0
2664	6.99379e+02	2.66400e+03	-0.112902	700.0
2665	6.99375e+02	2.66500e+03	-0.112898	700.0
2666	6.99372e+02	2.66600e+03	-0.112894	700.0
2667	6.99377e+02	2.66700e+03	-0.112889	700.0
2668	6.99369e+02	2.66800e+03	-0.112883	700.0
2669	6.99377e+02	2.66900e+03	-0.112875	700.0
2670	6.99374e+02	2.67000e+03	-0.112866	700.0
2671	6.99378e+02	2.67100e+03	-0.112857	700.0
2672	6.99375e+02	2.67200e+03	-0.112844	700.0
2673	6.99371e+02	2.67300e+03	-0.112837	700.0
2674	6.99375e+02	2.67400e+03	-0.112832	700.0
2675	6.99380e+02	2.67500e+03	-0.11283	700.0
2676	6.99380e+02	2.67600e+03	-0.112831	700.0
2677	6.99381e+02	2.67700e+03	-0.112829	700.0
2678	6.99387e+02	2.67800e+03	-0.112828	700.0
2679	6.99381e+02	2.67900e+03	-0.112829	700.0
2680	6.99378e+02	2.68000e+03	-0.112833	700.0
2681	6.99382e+02	2.68100e+03	-0.112838	700.0
2682	6.99386e+02	2.68200e+03	-0.112844	700.0
2683	6.99373e+02	2.68300e+03	-0.112851	700.0
2684	6.99383e+02	2.68400e+03	-0.112866	700.0
2685	6.99386e+02	2.68500e+03	-0.112882	700.0
2686	6.99384e+02	2.68600e+03	-0.112899	700.0
2687	6.99387e+02	2.68700e+03	-0.112917	700.0
2688	6.99377e+02	2.68800e+03	-0.112937	700.0
2689	6.99378e+02	2.68900e+03	-0.112952	700.0
2690	6.99379e+02	2.69000e+03	-0.112966	700.0
2691	6.99378e+02	2.69100e+03	-0.112978	700.0
2692	6.99376e+02	2.69200e+03	-0.112982	700.0
2693	6.99376e+02	2.69300e+03	-0.112988	700.0
2694	6.99378e+02	2.69400e+03	-0.112993	700.0
2695	6.99378e+02	2.69500e+03	-0.112996	700.0
2696	6.99379e+02	2.69600e+03	-0.112994	700.0
2697	6.99385e+02	2.69700e+03	-0.112992	700.0
2698	6.99381e+02	2.69800e+03	-0.112988	700.0
2699	6.99384e+02	2.69900e+03	-0.112984	700.0
2700	6.99380e+02	2.70000e+03	-0.112974	700.0
2701	6.99384e+02	2.70100e+03	-0.112965	700.0
2702	6.99384e+02	2.70200e+03	-0.112957	700.0
2703	6.99381e+02	2.70300e+03	-0.112948	700.0
2704	6.99383e+02	2.70400e+03	-0.112937	700.0
2705	6.99380e+02	2.70500e+03	-0.112929	700.0
2706	6.99381e+02	2.70600e+03	-0.112922	700.0
2707	6.99383e+02	2.70700e+03	-0.112916	700.0
2708	6.99386e+02	2.70800e+03	-0.112916	700.0
2709	6.99390e+02	2.70900e+03	-0.112916	700.0
2710	6.99387e+02	2.71000e+03	-0.112917	700.0
2711	6.99374e+02	2.71100e+03	-0.11292	700.0
2712	6.99385e+02	2.71200e+03	-0.112925	700.0
2713	6.99378e+02	2.71300e+03	-0.112932	700.0
2714	6.99378e+02	2.71400e+03	-0.112941	700.0
2715	6.99382e+02	2.71500e+03	-0.11295	700.0
2716	6.99373e+02	2.71600e+03	-0.11296	700.0
2717	6.99388e+02	2.71700e+03	-0.112969	700.0
2718	6.99391e+02	2.71800e+03	-0.112977	700.0
2719	6.99384e+02	2.71900e+03	-0.112984	700.0
2720	6.99385e+02	2.72000e+03	-0.11299	700.0
