Index	Ts	t	Weight	Tr
[#]	[°C]	[s]	[mg]	[°C]
682	1.30227e+02	6.82000e+02	2.98035	131.0
683	1.30729e+02	6.83000e+02	2.98031	131.5
684	1.31235e+02	6.84000e+02	2.98026	132.0
685	1.31733e+02	6.85000e+02	2.9802	132.5
686	1.32239e+02	6.86000e+02	2.98015	133.0
687	1.32728e+02	6.87000e+02	2.9801	133.5
688	1.33240e+02	6.88000e+02	2.98004	134.0
689	1.33727e+02	6.89000e+02	2.98	134.5
690	1.34229e+02	6.90000e+02	2.97997	135.0
691	1.34728e+02	6.91000e+02	2.97995	135.5
692	1.35232e+02	6.92000e+02	2.97995	136.0
693	1.35736e+02	6.93000e+02	2.97994	136.5
694	1.36233e+02	6.94000e+02	2.97993	137.0
695	1.36748e+02	6.95000e+02	2.97992	137.5
696	1.37252e+02	6.96000e+02	2.9799	138.0
697	1.37747e+02	6.97000e+02	2.97988	138.5
698	1.38259e+02	6.98000e+02	2.97986	139.0
699	1.38748e+02	6.99000e+02	2.97983	139.5
700	1.39247e+02	7.00000e+02	2.97977	140.0
701	1.39764e+02	7.01000e+02	2.97972	140.5
702	1.40263e+02	7.02000e+02	2.97966	141.0
703	1.40754e+02	7.03000e+02	2.97959	141.5
704	1.41269e+02	7.04000e+02	2.9795	142.0
705	1.41769e+02	7.05000e+02	2.97941	142.5
706	1.42267e+02	7.06000e+02	2.97932	143.0
707	1.42775e+02	7.07000e+02	2.97923	143.5
708	1.43277e+02	7.08000e+02	2.97911	144.0
709	1.43779e+02	7.09000e+02	2.97899	144.5
710	1.44275e+02	7.10000e+02	2.97887	145.0
711	1.44779e+02	7.11000e+02	2.97875	145.5
712	1.45281e+02	7.12000e+02	2.97861	146.0
713	1.45792e+02	7.13000e+02	2.97847	146.5
714	1.46283e+02	7.14000e+02	2.97834	147.0
715	1.46799e+02	7.15000e+02	2.9782	147.5
716	1.47286e+02	7.16000e+02	2.97806	148.0
717	1.47804e+02	7.17000e+02	2.97791	148.5
718	1.48296e+02	7.18000e+02	2.97777	149.0
719	1.48791e+02	7.19000e+02	2.97761	149.5
720	1.49299e+02	7.20000e+02	2.97745	150.0
721	1.49812e+02	7.21000e+02	2.97728	150.5
722	1.50315e+02	7.22000e+02	2.97712	151.0
723	1.50823e+02	7.23000e+02	2.97695	151.5
724	1.51324e+02	7.24000e+02	2.97678	152.0
725	1.51830e+02	7.25000e+02	2.97661	152.5
726	1.52330e+02	7.26000e+02	2.97644	153.0
727	1.52827e+02	7.27000e+02	2.97626	153.5
728	1.53332e+02	7.28000e+02	2.97606	154.0
729	1.53847e+02	7.29000e+02	2.97585	154.5
730	1.54348e+02	7.30000e+02	2.97563	155.0
731	1.54839e+02	7.31000e+02	2.9754	155.5
732	1.55348e+02	7.32000e+02	2.97514	156.0
733	1.55849e+02	7.33000e+02	2.97488	156.5
734	1.56358e+02	7.34000e+02	2.97463	157.0
735	1.56864e+02	7.35000e+02	2.97439	157.5
736	1.57375e+02	7.36000e+02	2.97413	158.0
737	1.57877e+02	7.37000e+02	2.97388	158.5
738	1.58381e+02	7.38000e+02	2.97363	159.0
739	1.58884e+02	7.39000e+02	2.97337	159.5
740	1.59394e+02	7.40000e+02	2.97312	160.0
741	1.59899e+02	7.41000e+02	2.97286	160.5
742	1.60397e+02	7.42000e+02	2.97259	161.0
743	1.60893e+02	7.43000e+02	2.97233	161.5
744	1.61394e+02	7.44000e+02	2.97203	162.0
745	1.61909e+02	7.45000e+02	2.97174	162.5
746	1.62418e+02	7.46000e+02	2.97143	163.0
747	1.62913e+02	7.47000e+02	2.97112	163.5
748	1.63418e+02	7.48000e+02	2.97078	164.0
749	1.63928e+02	7.49000e+02	2.97045	164.5
750	1.64441e+02	7.50000e+02	2.97011	165.0
751	1.64943e+02	7.51000e+02	2.96977	165.5
752	1.65439e+02	7.52000e+02	2.9694	166.0
753	1.65948e+02	7.53000e+02	2.96902	166.5
754	1.66447e+02	7.54000e+02	2.96864	167.0
755	1.66948e+02	7.55000e+02	2.96825	167.5
756	1.67460e+02	7.56000e+02	2.96783	168.0
757	1.67965e+02	7.57000e+02	2.96741	168.5
758	1.68468e+02	7.58000e+02	2.96698	169.0
759	1.68976e+02	7.59000e+02	2.96654	169.5
760	1.69477e+02	7.60000e+02	2.96606	170.0
761	1.69984e+02	7.61000e+02	2.96558	170.5
762	1.70484e+02	7.62000e+02	2.96507	171.0
763	1.70990e+02	7.63000e+02	2.96456	171.5
764	1.71498e+02	7.64000e+02	2.96399	172.0
765	1.72011e+02	7.65000e+02	2.96344	172.5
766	1.72510e+02	7.66000e+02	2.96289	173.0
767	1.73018e+02	7.67000e+02	2.96232	173.5
768	1.73530e+02	7.68000e+02	2.96171	174.0
769	1.74032e+02	7.69000e+02	2.96109	174.5
770	1.74526e+02	7.70000e+02	2.96045	175.0
771	1.75036e+02	7.71000e+02	2.95978	175.5
772	1.75545e+02	7.72000e+02	2.95902	176.0
773	1.76054e+02	7.73000e+02	2.95827	176.5
774	1.76562e+02	7.74000e+02	2.9575	177.0
775	1.77058e+02	7.75000e+02	2.9567	177.5
776	1.77565e+02	7.76000e+02	2.9558	178.0
777	1.78070e+02	7.77000e+02	2.9549	178.5
778	1.78572e+02	7.78000e+02	2.95398	179.0
779	1.79094e+02	7.79000e+02	2.95304	179.5
780	1.79588e+02	7.80000e+02	2.95198	180.0
781	1.80094e+02	7.81000e+02	2.95094	180.5
782	1.80607e+02	7.82000e+02	2.94988	181.0
783	1.81116e+02	7.83000e+02	2.9488	181.5
784	1.81616e+02	7.84000e+02	2.9476	182.0
785	1.82122e+02	7.85000e+02	2.94642	182.5
786	1.82616e+02	7.86000e+02	2.94521	183.0
787	1.83134e+02	7.87000e+02	2.94398	183.5
788	1.83640e+02	7.88000e+02	2.94263	184.0
789	1.84159e+02	7.89000e+02	2.9413	184.5
790	1.84651e+02	7.90000e+02	2.93994	185.0
791	1.85158e+02	7.91000e+02	2.93856	185.5
792	1.85655e+02	7.92000e+02	2.93707	186.0
793	1.86176e+02	7.93000e+02	2.9356	186.5
794	1.86675e+02	7.94000e+02	2.93411	187.0
795	1.87196e+02	7.95000e+02	2.9326	187.5
796	1.87692e+02	7.96000e+02	2.931	188.0
797	1.88200e+02	7.97000e+02	2.92941	188.5
798	1.88704e+02	7.98000e+02	2.92781	189.0
799	1.89221e+02	7.99000e+02	2.92619	189.5
800	1.89727e+02	8.00000e+02	2.92449	190.0
801	1.90237e+02	8.01000e+02	2.9228	190.5
802	1.90748e+02	8.02000e+02	2.92109	191.0
803	1.91254e+02	8.03000e+02	2.91937	191.5
804	1.91765e+02	8.04000e+02	2.91758	192.0
805	1.92271e+02	8.05000e+02	2.91581	192.5
806	1.92778e+02	8.06000e+02	2.91403	193.0
807	1.93276e+02	8.07000e+02	2.91225	193.5
808	1.93790e+02	8.08000e+02	2.91045	194.0
809	1.94304e+02	8.09000e+02	2.90866	194.5
810	1.94808e+02	8.10000e+02	2.90687	195.0
811	1.95322e+02	8.11000e+02	2.90509	195.5
812	1.95824e+02	8.12000e+02	2.90333	196.0
813	1.96335e+02	8.13000e+02	2.90157	196.5
814	1.96839e+02	8.14000e+02	2.89982	197.0
815	1.97357e+02	8.15000e+02	2.89808	197.5
816	1.97860e+02	8.16000e+02	2.89638	198.0
817	1.98376e+02	8.17000e+02	2.89468	198.5
818	1.98884e+02	8.18000e+02	2.89299	199.0
819	1.99396e+02	8.19000e+02	2.89131	199.5
820	1.99908e+02	8.20000e+02	2.8897	200.0
821	2.00407e+02	8.21000e+02	2.88809	200.5
822	2.00911e+02	8.22000e+02	2.8865	201.0
823	2.01428e+02	8.23000e+02	2.88493	201.5
824	2.01942e+02	8.24000e+02	2.88345	202.0
825	2.02454e+02	8.25000e+02	2.88197	202.5
826	2.02962e+02	8.26000e+02	2.8805	203.0
827	2.03471e+02	8.27000e+02	2.87906	203.5
828	2.03975e+02	8.28000e+02	2.87772	204.0
829	2.04488e+02	8.29000e+02	2.87637	204.5
830	2.05000e+02	8.30000e+02	2.87505	205.0
831	2.05512e+02	8.31000e+02	2.87375	205.5
832	2.06012e+02	8.32000e+02	2.8726	206.0
833	2.06524e+02	8.33000e+02	2.87143	206.5
834	2.07044e+02	8.34000e+02	2.8703	207.0
835	2.07563e+02	8.35000e+02	2.86921	207.5
836	2.08059e+02	8.36000e+02	2.86826	208.0
837	2.08566e+02	8.37000e+02	2.86729	208.5
838	2.09081e+02	8.38000e+02	2.86635	209.0
839	2.09597e+02	8.39000e+02	2.86543	209.5
840	2.10096e+02	8.40000e+02	2.86465	210.0
841	2.10607e+02	8.41000e+02	2.86385	210.5
842	2.11133e+02	8.42000e+02	2.86307	211.0
843	2.11636e+02	8.43000e+02	2.86232	211.5
844	2.12144e+02	8.44000e+02	2.8617	212.0
845	2.12658e+02	8.45000e+02	2.86105	212.5
846	2.13181e+02	8.46000e+02	2.86043	213.0
847	2.13688e+02	8.47000e+02	2.85982	213.5
848	2.14180e+02	8.48000e+02	2.85932	214.0
849	2.14699e+02	8.49000e+02	2.8588	214.5
850	2.15214e+02	8.50000e+02	2.8583	215.0
851	2.15722e+02	8.51000e+02	2.8578	215.5
852	2.16228e+02	8.52000e+02	2.85737	216.0
853	2.16748e+02	8.53000e+02	2.85692	216.5
854	2.17245e+02	8.54000e+02	2.85647	217.0
855	2.17759e+02	8.55000e+02	2.85602	217.5
856	2.18254e+02	8.56000e+02	2.85561	218.0
857	2.18767e+02	8.57000e+02	2.8552	218.5
858	2.19272e+02	8.58000e+02	2.8548	219.0
859	2.19787e+02	8.59000e+02	2.85441	219.5
860	2.20286e+02	8.60000e+02	2.85406	220.0
861	2.20809e+02	8.61000e+02	2.85369	220.5
862	2.21299e+02	8.62000e+02	2.85333	221.0
863	2.21789e+02	8.63000e+02	2.85298	221.5
864	2.22313e+02	8.64000e+02	2.85264	222.0
865	2.22816e+02	8.65000e+02	2.8523	222.5
866	2.23322e+02	8.66000e+02	2.85196	223.0
867	2.23830e+02	8.67000e+02	2.85163	223.5
868	2.24330e+02	8.68000e+02	2.85129	224.0
869	2.24840e+02	8.69000e+02	2.85095	224.5
870	2.25336e+02	8.70000e+02	2.8506	225.0
871	2.25834e+02	8.71000e+02	2.85025	225.5
872	2.26343e+02	8.72000e+02	2.8499	226.0
873	2.26837e+02	8.73000e+02	2.84954	226.5
874	2.27357e+02	8.74000e+02	2.8492	227.0
875	2.27862e+02	8.75000e+02	2.84885	227.5
876	2.28360e+02	8.76000e+02	2.84851	228.0
877	2.28860e+02	8.77000e+02	2.84817	228.5
878	2.29367e+02	8.78000e+02	2.84782	229.0
879	2.29883e+02	8.79000e+02	2.84746	229.5
880	2.30389e+02	8.80000e+02	2.8471	230.0
881	2.30900e+02	8.81000e+02	2.84674	230.5
882	2.31402e+02	8.82000e+02	2.84638	231.0
883	2.31914e+02	8.83000e+02	2.84601	231.5
884	2.32408e+02	8.84000e+02	2.84563	232.0
885	2.32916e+02	8.85000e+02	2.84525	232.5
886	2.33420e+02	8.86000e+02	2.84486	233.0
887	2.33932e+02	8.87000e+02	2.84448	233.5
888	2.34439e+02	8.88000e+02	2.84408	234.0
889	2.34954e+02	8.89000e+02	2.84369	234.5
890	2.35457e+02	8.90000e+02	2.84331	235.0
891	2.35958e+02	8.91000e+02	2.84293	235.5
892	2.36470e+02	8.92000e+02	2.84257	236.0
893	2.36981e+02	8.93000e+02	2.84221	236.5
894	2.37488e+02	8.94000e+02	2.84186	237.0
895	2.37982e+02	8.95000e+02	2.84152	237.5
896	2.38490e+02	8.96000e+02	2.84119	238.0
897	2.38996e+02	8.97000e+02	2.84086	238.5
898	2.39505e+02	8.98000e+02	2.84053	239.0
899	2.40001e+02	8.99000e+02	2.8402	239.5
900	2.40497e+02	9.00000e+02	2.83987	240.0
901	2.41004e+02	9.01000e+02	2.83955	240.5
902	2.41509e+02	9.02000e+02	2.83923	241.0
903	2.42007e+02	9.03000e+02	2.83892	241.5
904	2.42503e+02	9.04000e+02	2.83862	242.0
905	2.43011e+02	9.05000e+02	2.83833	242.5
906	2.43512e+02	9.06000e+02	2.83804	243.0
907	2.44018e+02	9.07000e+02	2.83776	243.5
908	2.44525e+02	9.08000e+02	2.83752	244.0
909	2.45027e+02	9.09000e+02	2.83727	244.5
910	2.45540e+02	9.10000e+02	2.83702	245.0
911	2.46046e+02	9.11000e+02	2.83677	245.5
912	2.46542e+02	9.12000e+02	2.83653	246.0
913	2.47052e+02	9.13000e+02	2.83628	246.5
914	2.47564e+02	9.14000e+02	2.83601	247.0
915	2.48075e+02	9.15000e+02	2.83574	247.5
916	2.48574e+02	9.16000e+02	2.83545	248.0
917	2.49077e+02	9.17000e+02	2.83519	248.5
918	2.49585e+02	9.18000e+02	2.83493	249.0
919	2.50109e+02	9.19000e+02	2.83469	249.5
920	2.50601e+02	9.20000e+02	2.83447	250.0
921	2.51108e+02	9.21000e+02	2.83423	250.5
922	2.51613e+02	9.22000e+02	2.83399	251.0
923	2.52114e+02	9.23000e+02	2.83375	251.5
924	2.52617e+02	9.24000e+02	2.83352	252.0
925	2.53112e+02	9.25000e+02	2.83329	252.5
926	2.53614e+02	9.26000e+02	2.83306	253.0
927	2.54119e+02	9.27000e+02	2.83284	253.5
928	2.54619e+02	9.28000e+02	2.83262	254.0
929	2.55100e+02	9.29000e+02	2.8324	254.5
930	2.55606e+02	9.30000e+02	2.83218	255.0
931	2.56103e+02	9.31000e+02	2.83195	255.5
932	2.56586e+02	9.32000e+02	2.83173	256.0
933	2.57094e+02	9.33000e+02	2.83151	256.5
934	2.57564e+02	9.34000e+02	2.83128	257.0
935	2.58063e+02	9.35000e+02	2.83106	257.5
936	2.58561e+02	9.36000e+02	2.83083	258.0
937	2.59061e+02	9.37000e+02	2.83059	258.5
938	2.59577e+02	9.38000e+02	2.83034	259.0
939	2.60090e+02	9.39000e+02	2.83009	259.5
940	2.60595e+02	9.40000e+02	2.82982	260.0
941	2.61110e+02	9.41000e+02	2.82955	260.5
942	2.61628e+02	9.42000e+02	2.82928	261.0
943	2.62145e+02	9.43000e+02	2.82901	261.5
944	2.62653e+02	9.44000e+02	2.82873	262.0
945	2.63151e+02	9.45000e+02	2.82844	262.5
946	2.63661e+02	9.46000e+02	2.82815	263.0
947	2.64158e+02	9.47000e+02	2.82786	263.5
948	2.64675e+02	9.48000e+02	2.82757	264.0
949	2.65170e+02	9.49000e+02	2.82729	264.5
950	2.65692e+02	9.50000e+02	2.82702	265.0
951	2.66198e+02	9.51000e+02	2.82676	265.5
952	2.66700e+02	9.52000e+02	2.82654	266.0
953	2.67216e+02	9.53000e+02	2.82631	266.5
954	2.67731e+02	9.54000e+02	2.82609	267.0
955	2.68244e+02	9.55000e+02	2.82586	267.5
956	2.68769e+02	9.56000e+02	2.82567	268.0
957	2.69286e+02	9.57000e+02	2.82545	268.5
958	2.69792e+02	9.58000e+02	2.82524	269.0
959	2.70309e+02	9.59000e+02	2.82502	269.5
960	2.70809e+02	9.60000e+02	2.82478	270.0
961	2.71340e+02	9.61000e+02	2.82454	270.5
962	2.71828e+02	9.62000e+02	2.8243	271.0
963	2.72350e+02	9.63000e+02	2.82404	271.5
964	2.72858e+02	9.64000e+02	2.82377	272.0
965	2.73358e+02	9.65000e+02	2.82349	272.5
966	2.73876e+02	9.66000e+02	2.82321	273.0
967	2.74354e+02	9.67000e+02	2.82293	273.5
968	2.74865e+02	9.68000e+02	2.82262	274.0
969	2.75366e+02	9.69000e+02	2.82231	274.5
970	2.75856e+02	9.70000e+02	2.822	275.0
971	2.76355e+02	9.71000e+02	2.82167	275.5
972	2.76852e+02	9.72000e+02	2.82132	276.0
973	2.77349e+02	9.73000e+02	2.82097	276.5
974	2.77846e+02	9.74000e+02	2.82062	277.0
975	2.78344e+02	9.75000e+02	2.82026	277.5
976	2.78855e+02	9.76000e+02	2.81985	278.0
977	2.79354e+02	9.77000e+02	2.81946	278.5
978	2.79860e+02	9.78000e+02	2.81905	279.0
979	2.80375e+02	9.79000e+02	2.81862	279.5
980	2.80901e+02	9.80000e+02	2.81815	280.0
981	2.81408e+02	9.81000e+02	2.81769	280.5
982	2.81931e+02	9.82000e+02	2.81722	281.0
983	2.82452e+02	9.83000e+02	2.81674	281.5
984	2.82949e+02	9.84000e+02	2.8162	282.0
985	2.83463e+02	9.85000e+02	2.81568	282.5
986	2.83972e+02	9.86000e+02	2.81513	283.0
987	2.84495e+02	9.87000e+02	2.81457	283.5
988	2.85010e+02	9.88000e+02	2.81394	284.0
989	2.85519e+02	9.89000e+02	2.81332	284.5
990	2.86027e+02	9.90000e+02	2.81269	285.0
991	2.86529e+02	9.91000e+02	2.81204	285.5
992	2.87036e+02	9.92000e+02	2.81134	286.0
993	2.87547e+02	9.93000e+02	2.81067	286.5
994	2.88059e+02	9.94000e+02	2.80998	287.0
995	2.88555e+02	9.95000e+02	2.8093	287.5
996	2.89060e+02	9.96000e+02	2.80858	288.0
997	2.89570e+02	9.97000e+02	2.80785	288.5
998	2.90090e+02	9.98000e+02	2.8071	289.0
999	2.90584e+02	9.99000e+02	2.80634	289.5
1000	2.91097e+02	1.00000e+03	2.80551	290.0
1001	2.91603e+02	1.00100e+03	2.80468	290.5
1002	2.92112e+02	1.00200e+03	2.80382	291.0
1003	2.92644e+02	1.00300e+03	2.80294	291.5
1004	2.93138e+02	1.00400e+03	2.80196	292.0
1005	2.93640e+02	1.00500e+03	2.80098	292.5
1006	2.94150e+02	1.00600e+03	2.79998	293.0
1007	2.94641e+02	1.00700e+03	2.79896	293.5
1008	2.95148e+02	1.00800e+03	2.79783	294.0
1009	2.95643e+02	1.00900e+03	2.79672	294.5
1010	2.96143e+02	1.01000e+03	2.7956	295.0
1011	2.96657e+02	1.01100e+03	2.79445	295.5
1012	2.97180e+02	1.01200e+03	2.79322	296.0
1013	2.97686e+02	1.01300e+03	2.79199	296.5
1014	2.98196e+02	1.01400e+03	2.79073	297.0
1015	2.98723e+02	1.01500e+03	2.78946	297.5
1016	2.99228e+02	1.01600e+03	2.78806	298.0
1017	2.99760e+02	1.01700e+03	2.78669	298.5
1018	3.00263e+02	1.01800e+03	2.78529	299.0
1019	3.00797e+02	1.01900e+03	2.78387	299.5
1020	3.01299e+02	1.02000e+03	2.78234	300.0
1021	3.01830e+02	1.02100e+03	2.78083	300.5
1022	3.02353e+02	1.02200e+03	2.77928	301.0
1023	3.02870e+02	1.02300e+03	2.77772	301.5
1024	3.03420e+02	1.02400e+03	2.77604	302.0
1025	3.03951e+02	1.02500e+03	2.77438	302.5
1026	3.04446e+02	1.02600e+03	2.7727	303.0
1027	3.04960e+02	1.02700e+03	2.77099	303.5
1028	3.05451e+02	1.02800e+03	2.76919	304.0
1029	3.05950e+02	1.02900e+03	2.7674	304.5
1030	3.06449e+02	1.03000e+03	2.76559	305.0
1031	3.06951e+02	1.03100e+03	2.76377	305.5
1032	3.07467e+02	1.03200e+03	2.76188	306.0
1033	3.07970e+02	1.03300e+03	2.76	306.5
1034	3.08480e+02	1.03400e+03	2.75813	307.0
1035	3.08976e+02	1.03500e+03	2.75624	307.5
1036	3.09496e+02	1.03600e+03	2.75429	308.0
1037	3.10008e+02	1.03700e+03	2.75234	308.5
1038	3.10557e+02	1.03800e+03	2.75037	309.0
1039	3.11092e+02	1.03900e+03	2.74839	309.5
1040	3.11605e+02	1.04000e+03	2.74633	310.0
1041	3.12111e+02	1.04100e+03	2.74427	310.5
1042	3.12615e+02	1.04200e+03	2.7422	311.0
1043	3.13128e+02	1.04300e+03	2.74012	311.5
1044	3.13623e+02	1.04400e+03	2.73797	312.0
1045	3.14133e+02	1.04500e+03	2.73583	312.5
1046	3.14680e+02	1.04600e+03	2.73367	313.0
1047	3.15221e+02	1.04700e+03	2.73151	313.5
1048	3.15752e+02	1.04800e+03	2.7293	314.0
1049	3.16244e+02	1.04900e+03	2.7271	314.5
1050	3.16751e+02	1.05000e+03	2.72491	315.0
1051	3.17265e+02	1.05100e+03	2.72271	315.5
1052	3.17780e+02	1.05200e+03	2.72051	316.0
1053	3.18278e+02	1.05300e+03	2.71831	316.5
1054	3.18782e+02	1.05400e+03	2.7161	317.0
1055	3.19278e+02	1.05500e+03	2.7139	317.5
1056	3.19793e+02	1.05600e+03	2.71171	318.0
1057	3.20307e+02	1.05700e+03	2.70952	318.5
1058	3.20822e+02	1.05800e+03	2.70733	319.0
1059	3.21332e+02	1.05900e+03	2.70515	319.5
1060	3.21840e+02	1.06000e+03	2.70296	320.0
1061	3.22345e+02	1.06100e+03	2.70077	320.5
1062	3.22851e+02	1.06200e+03	2.69856	321.0
1063	3.23368e+02	1.06300e+03	2.69634	321.5
1064	3.23872e+02	1.06400e+03	2.69409	322.0
1065	3.24361e+02	1.06500e+03	2.69183	322.5
1066	3.24851e+02	1.06600e+03	2.68955	323.0
1067	3.25347e+02	1.06700e+03	2.68726	323.5
1068	3.25862e+02	1.06800e+03	2.6849	324.0
1069	3.26363e+02	1.06900e+03	2.68253	324.5
1070	3.26868e+02	1.07000e+03	2.68014	325.0
1071	3.27360e+02	1.07100e+03	2.67772	325.5
1072	3.27867e+02	1.07200e+03	2.67518	326.0
1073	3.28367e+02	1.07300e+03	2.67265	326.5
1074	3.28876e+02	1.07400e+03	2.67008	327.0
1075	3.29386e+02	1.07500e+03	2.66748	327.5
1076	3.29903e+02	1.07600e+03	2.66473	328.0
1077	3.30402e+02	1.07700e+03	2.66199	328.5
1078	3.30910e+02	1.07800e+03	2.6592	329.0
1079	3.31414e+02	1.07900e+03	2.65638	329.5
1080	3.31929e+02	1.08000e+03	2.65336	330.0
1081	3.32458e+02	1.08100e+03	2.65034	330.5
1082	3.32972e+02	1.08200e+03	2.64726	331.0
1083	3.33514e+02	1.08300e+03	2.64413	331.5
1084	3.34029e+02	1.08400e+03	2.64073	332.0
1085	3.34529e+02	1.08500e+03	2.63735	332.5
1086	3.35037e+02	1.08600e+03	2.63391	333.0
1087	3.35528e+02	1.08700e+03	2.63039	333.5
1088	3.36051e+02	1.08800e+03	2.62655	334.0
1089	3.36546e+02	1.08900e+03	2.62273	334.5
1090	3.37024e+02	1.09000e+03	2.61883	335.0
1091	3.37537e+02	1.09100e+03	2.61484	335.5
1092	3.38036e+02	1.09200e+03	2.61047	336.0
1093	3.38534e+02	1.09300e+03	2.60613	336.5
1094	3.39031e+02	1.09400e+03	2.6017	337.0
1095	3.39538e+02	1.09500e+03	2.59719	337.5
1096	3.40066e+02	1.09600e+03	2.59224	338.0
1097	3.40568e+02	1.09700e+03	2.58734	338.5
1098	3.41062e+02	1.09800e+03	2.58235	339.0
1099	3.41578e+02	1.09900e+03	2.57726	339.5
1100	3.42083e+02	1.10000e+03	2.57171	340.0
1101	3.42626e+02	1.10100e+03	2.56621	340.5
1102	3.43196e+02	1.10200e+03	2.56059	341.0
1103	3.43771e+02	1.10300e+03	2.55487	341.5
1104	3.44247e+02	1.10400e+03	2.54862	342.0
1105	3.44739e+02	1.10500e+03	2.54242	342.5
1106	3.45269e+02	1.10600e+03	2.53608	343.0
1107	3.45757e+02	1.10700e+03	2.52963	343.5
1108	3.46244e+02	1.10800e+03	2.52257	344.0
1109	3.46710e+02	1.10900e+03	2.51558	344.5
1110	3.47243e+02	1.11000e+03	2.50845	345.0
1111	3.47753e+02	1.11100e+03	2.50119	345.5
1112	3.48210e+02	1.11200e+03	2.49326	346.0
1113	3.48663e+02	1.11300e+03	2.48538	346.5
1114	3.49102e+02	1.11400e+03	2.47735	347.0
1115	3.49569e+02	1.11500e+03	2.46917	347.5
1116	3.50039e+02	1.11600e+03	2.46026	348.0
1117	3.50528e+02	1.11700e+03	2.45144	348.5
1118	3.50988e+02	1.11800e+03	2.44247	349.0
1119	3.51457e+02	1.11900e+03	2.43336	349.5
1120	3.51937e+02	1.12000e+03	2.42348	350.0
1121	3.52413e+02	1.12100e+03	2.41368	350.5
1122	3.52871e+02	1.12200e+03	2.4037	351.0
1123	3.53368e+02	1.12300e+03	2.39356	351.5
1124	3.53864e+02	1.12400e+03	2.38259	352.0
1125	3.54328e+02	1.12500e+03	2.37174	352.5
1126	3.54825e+02	1.12600e+03	2.3607	353.0
1127	3.55322e+02	1.12700e+03	2.34951	353.5
1128	3.55830e+02	1.12800e+03	2.33748	354.0
1129	3.56309e+02	1.12900e+03	2.32555	354.5
1130	3.56811e+02	1.13000e+03	2.31343	355.0
1131	3.57357e+02	1.13100e+03	2.30115	355.5
1132	3.57831e+02	1.13200e+03	2.28801	356.0
1133	3.58285e+02	1.13300e+03	2.27499	356.5
1134	3.58761e+02	1.13400e+03	2.2618	357.0
1135	3.59248e+02	1.13500e+03	2.24844	357.5
1136	3.59733e+02	1.13600e+03	2.23422	358.0
1137	3.60211e+02	1.13700e+03	2.22011	358.5
1138	3.60686e+02	1.13800e+03	2.20582	359.0
1139	3.61149e+02	1.13900e+03	2.19136	359.5
1140	3.61618e+02	1.14000e+03	2.17606	360.0
1141	3.62121e+02	1.14100e+03	2.16087	360.5
1142	3.62620e+02	1.14200e+03	2.14552	361.0
1143	3.63095e+02	1.14300e+03	2.13001	361.5
1144	3.63584e+02	1.14400e+03	2.11368	362.0
1145	3.64073e+02	1.14500e+03	2.09748	362.5
1146	3.64544e+02	1.14600e+03	2.0811	363.0
1147	3.65014e+02	1.14700e+03	2.06457	363.5
1148	3.65497e+02	1.14800e+03	2.04727	364.0
1149	3.65983e+02	1.14900e+03	2.03008	364.5
1150	3.66455e+02	1.15000e+03	2.01275	365.0
1151	3.66929e+02	1.15100e+03	1.99527	365.5
1152	3.67425e+02	1.15200e+03	1.97706	366.0
1153	3.67900e+02	1.15300e+03	1.95895	366.5
1154	3.68376e+02	1.15400e+03	1.9407	367.0
1155	3.68849e+02	1.15500e+03	1.92229	367.5
1156	3.69331e+02	1.15600e+03	1.90317	368.0
1157	3.69811e+02	1.15700e+03	1.88414	368.5
1158	3.70300e+02	1.15800e+03	1.86497	369.0
1159	3.70792e+02	1.15900e+03	1.84567	369.5
1160	3.71270e+02	1.16000e+03	1.82566	370.0
1161	3.71772e+02	1.16100e+03	1.80577	370.5
1162	3.72267e+02	1.16200e+03	1.78576	371.0
1163	3.72759e+02	1.16300e+03	1.76562	371.5
1164	3.73254e+02	1.16400e+03	1.74484	372.0
1165	3.73744e+02	1.16500e+03	1.72415	372.5
1166	3.74242e+02	1.16600e+03	1.70334	373.0
1167	3.74724e+02	1.16700e+03	1.68243	373.5
1168	3.75223e+02	1.16800e+03	1.66094	374.0
1169	3.75730e+02	1.16900e+03	1.63958	374.5
1170	3.76232e+02	1.17000e+03	1.61813	375.0
1171	3.76735e+02	1.17100e+03	1.5966	375.5
1172	3.77241e+02	1.17200e+03	1.57461	376.0
1173	3.77758e+02	1.17300e+03	1.55268	376.5
1174	3.78279e+02	1.17400e+03	1.53066	377.0
1175	3.78778e+02	1.17500e+03	1.50855	377.5
1176	3.79287e+02	1.17600e+03	1.48598	378.0
1177	3.79810e+02	1.17700e+03	1.46347	378.5
1178	3.80324e+02	1.17800e+03	1.44082	379.0
1179	3.80845e+02	1.17900e+03	1.41805	379.5
1180	3.81345e+02	1.18000e+03	1.39466	380.0
1181	3.81864e+02	1.18100e+03	1.37126	380.5
1182	3.82355e+02	1.18200e+03	1.3477	381.0
1183	3.82867e+02	1.18300e+03	1.32402	381.5
1184	3.83355e+02	1.18400e+03	1.29964	382.0
1185	3.83874e+02	1.18500e+03	1.27549	382.5
1186	3.84376e+02	1.18600e+03	1.25131	383.0
1187	3.84880e+02	1.18700e+03	1.22708	383.5
1188	3.85370e+02	1.18800e+03	1.20262	384.0
1189	3.85872e+02	1.18900e+03	1.1783	384.5
1190	3.86397e+02	1.19000e+03	1.15404	385.0
1191	3.86869e+02	1.19100e+03	1.12983	385.5
1192	3.87337e+02	1.19200e+03	1.10582	386.0
1193	3.87819e+02	1.19300e+03	1.08191	386.5
1194	3.88326e+02	1.19400e+03	1.05812	387.0
1195	3.88847e+02	1.19500e+03	1.03443	387.5
1196	3.89362e+02	1.19600e+03	1.01124	388.0
1197	3.89880e+02	1.19700e+03	0.987971	388.5
1198	3.90377e+02	1.19800e+03	0.964777	389.0
1199	3.90854e+02	1.19900e+03	0.941663	389.5
1200	3.91306e+02	1.20000e+03	0.919023	390.0
1201	3.91798e+02	1.20100e+03	0.896332	390.5
1202	3.92292e+02	1.20200e+03	0.873753	391.0
1203	3.92790e+02	1.20300e+03	0.851282	391.5
1204	3.93290e+02	1.20400e+03	0.829324	392.0
1205	3.93786e+02	1.20500e+03	0.807331	392.5
1206	3.94274e+02	1.20600e+03	0.785475	393.0
1207	3.94770e+02	1.20700e+03	0.763739	393.5
1208	3.95271e+02	1.20800e+03	0.742647	394.0
1209	3.95780e+02	1.20900e+03	0.721514	394.5
1210	3.96284e+02	1.21000e+03	0.700567	395.0
1211	3.96787e+02	1.21100e+03	0.679781	395.5
1212	3.97280e+02	1.21200e+03	0.659807	396.0
1213	3.97784e+02	1.21300e+03	0.639776	396.5
1214	3.98289e+02	1.21400e+03	0.619959	397.0
1215	3.98810e+02	1.21500e+03	0.60033	397.5
1216	3.99328e+02	1.21600e+03	0.581678	398.0
1217	3.99830e+02	1.21700e+03	0.562923	398.5
1218	4.00324e+02	1.21800e+03	0.544407	399.0
1219	4.00841e+02	1.21900e+03	0.52611	399.5
1220	4.01351e+02	1.22000e+03	0.508893	400.0
1221	4.01860e+02	1.22100e+03	0.491568	400.5
1222	4.02374e+02	1.22200e+03	0.474497	401.0
1223	4.02882e+02	1.22300e+03	0.457656	401.5
1224	4.03387e+02	1.22400e+03	0.441997	402.0
1225	4.03887e+02	1.22500e+03	0.426186	402.5
1226	4.04383e+02	1.22600e+03	0.410637	403.0
1227	4.04904e+02	1.22700e+03	0.39533	403.5
1228	4.05425e+02	1.22800e+03	0.38125	404.0
1229	4.05953e+02	1.22900e+03	0.367023	404.5
1230	4.06467e+02	1.23000e+03	0.353062	405.0
1231	4.06997e+02	1.23100e+03	0.339344	405.5
1232	4.07508e+02	1.23200e+03	0.326886	406.0
1233	4.08013e+02	1.23300e+03	0.314243	406.5
1234	4.08495e+02	1.23400e+03	0.30185	407.0
1235	4.08994e+02	1.23500e+03	0.289695	407.5
1236	4.09486e+02	1.23600e+03	0.278742	408.0
1237	4.09988e+02	1.23700e+03	0.267612	408.5
1238	4.10481e+02	1.23800e+03	0.256713	409.0
1239	4.10982e+02	1.23900e+03	0.246032	409.5
1240	4.11493e+02	1.24000e+03	0.23647	410.0
1241	4.12005e+02	1.24100e+03	0.226724	410.5
1242	4.12505e+02	1.24200e+03	0.217184	411.0
1243	4.13004e+02	1.24300e+03	0.207841	411.5
1244	4.13495e+02	1.24400e+03	0.19951	412.0
1245	4.14003e+02	1.24500e+03	0.191029	412.5
1246	4.14512e+02	1.24600e+03	0.182745	413.0
1247	4.15027e+02	1.24700e+03	0.174645	413.5
1248	4.15559e+02	1.24800e+03	0.16749	414.0
1249	4.16091e+02	1.24900e+03	0.160187	414.5
1250	4.16620e+02	1.25000e+03	0.153062	415.0
1251	4.17115e+02	1.25100e+03	0.146106	415.5
1252	4.17602e+02	1.25200e+03	0.140023	416.0
1253	4.18099e+02	1.25300e+03	0.133812	416.5
1254	4.18591e+02	1.25400e+03	0.127768	417.0
1255	4.19101e+02	1.25500e+03	0.121882	417.5
1256	4.19593e+02	1.25600e+03	0.1168	418.0
1257	4.20099e+02	1.25700e+03	0.111586	418.5
1258	4.20580e+02	1.25800e+03	0.106517	419.0
1259	4.21096e+02	1.25900e+03	0.101586	419.5
1260	4.21602e+02	1.26000e+03	0.0973716	420.0
1261	4.22104e+02	1.26100e+03	0.0930424	420.5
1262	4.22592e+02	1.26200e+03	0.0888451	421.0
1263	4.23068e+02	1.26300e+03	0.084772	421.5
1264	4.23529e+02	1.26400e+03	0.0813331	422.0
1265	4.24014e+02	1.26500e+03	0.0777849	422.5
1266	4.24496e+02	1.26600e+03	0.0743479	423.0
1267	4.24975e+02	1.26700e+03	0.0710178	423.5
1268	4.25455e+02	1.26800e+03	0.0682406	424.0
1269	4.25947e+02	1.26900e+03	0.0653741	424.5
1270	4.26433e+02	1.27000e+03	0.0626076	425.0
1271	4.26944e+02	1.27100e+03	0.059936	425.5
1272	4.27432e+02	1.27200e+03	0.057745	426.0
1273	4.27928e+02	1.27300e+03	0.0554646	426.5
1274	4.28434e+02	1.27400e+03	0.0532609	427.0
1275	4.28932e+02	1.27500e+03	0.0511337	427.5
1276	4.29423e+02	1.27600e+03	0.0494055	428.0
1277	4.29917e+02	1.27700e+03	0.0476081	428.5
1278	4.30431e+02	1.27800e+03	0.0458778	429.0
1279	4.30926e+02	1.27900e+03	0.0442118	429.5
1280	4.31418e+02	1.28000e+03	0.0428727	430.0
1281	4.31933e+02	1.28100e+03	0.0414659	430.5
1282	4.32423e+02	1.28200e+03	0.0401042	431.0
1283	4.32897e+02	1.28300e+03	0.0387895	431.5
1284	4.33389e+02	1.28400e+03	0.0377211	432.0
1285	4.33890e+02	1.28500e+03	0.0366038	432.5
1286	4.34372e+02	1.28600e+03	0.0355249	433.0
1287	4.34869e+02	1.28700e+03	0.0344844	433.5
1288	4.35366e+02	1.28800e+03	0.0336319	434.0
1289	4.35860e+02	1.28900e+03	0.0327447	434.5
1290	4.36355e+02	1.29000e+03	0.0318895	435.0
1291	4.36841e+02	1.29100e+03	0.0310662	435.5
1292	4.37358e+02	1.29200e+03	0.0304075	436.0
1293	4.37850e+02	1.29300e+03	0.0297244	436.5
1294	4.38337e+02	1.29400e+03	0.0290705	437.0
1295	4.38871e+02	1.29500e+03	0.028443	437.5
1296	4.39379e+02	1.29600e+03	0.0279542	438.0
1297	4.39897e+02	1.29700e+03	0.0274314	438.5
1298	4.40373e+02	1.29800e+03	0.0269243	439.0
1299	4.40871e+02	1.29900e+03	0.0264351	439.5
1300	4.41353e+02	1.30000e+03	0.026043	440.0
1301	4.41838e+02	1.30100e+03	0.0256365	440.5
1302	4.42334e+02	1.30200e+03	0.0252481	441.0
1303	4.42817e+02	1.30300e+03	0.0248765	441.5
1304	4.43302e+02	1.30400e+03	0.0245855	442.0
1305	4.43774e+02	1.30500e+03	0.0242741	442.5
1306	4.44279e+02	1.30600e+03	0.0239701	443.0
1307	4.44794e+02	1.30700e+03	0.0236756	443.5
1308	4.45288e+02	1.30800e+03	0.0234389	444.0
1309	4.45773e+02	1.30900e+03	0.0231941	444.5
1310	4.46239e+02	1.31000e+03	0.0229607	445.0
1311	4.46733e+02	1.31100e+03	0.0227375	445.5
1312	4.47213e+02	1.31200e+03	0.0225636	446.0
1313	4.47696e+02	1.31300e+03	0.0223791	446.5
1314	4.48179e+02	1.31400e+03	0.022199	447.0
1315	4.48654e+02	1.31500e+03	0.0220235	447.5
1316	4.49126e+02	1.31600e+03	0.021877	448.0
1317	4.49599e+02	1.31700e+03	0.0217181	448.5
1318	4.50083e+02	1.31800e+03	0.0215619	449.0
1319	4.50557e+02	1.31900e+03	0.0214115	449.5
1320	4.51051e+02	1.32000e+03	0.0212869	450.0
1321	4.51542e+02	1.32100e+03	0.0211727	450.5
1322	4.52023e+02	1.32200e+03	0.0210696	451.0
1323	4.52499e+02	1.32300e+03	0.020973	451.5
1324	4.52985e+02	1.32400e+03	0.020924	452.0
1325	4.53466e+02	1.32500e+03	0.0208607	452.5
1326	4.53947e+02	1.32600e+03	0.020802	453.0
1327	4.54428e+02	1.32700e+03	0.0207486	453.5
1328	4.54906e+02	1.32800e+03	0.0207145	454.0
1329	4.55368e+02	1.32900e+03	0.0206713	454.5
1330	4.55839e+02	1.33000e+03	0.020622	455.0
1331	4.56303e+02	1.33100e+03	0.0205687	455.5
1332	4.56785e+02	1.33200e+03	0.0205099	456.0
1333	4.57272e+02	1.33300e+03	0.0204472	456.5
1334	4.57742e+02	1.33400e+03	0.0203859	457.0
1335	4.58220e+02	1.33500e+03	0.0203274	457.5
1336	4.58709e+02	1.33600e+03	0.0202639	458.0
1337	4.59193e+02	1.33700e+03	0.0202151	458.5
1338	4.59685e+02	1.33800e+03	0.0201744	459.0
1339	4.60177e+02	1.33900e+03	0.0201377	459.5
1340	4.60654e+02	1.34000e+03	0.0201272	460.0
1341	4.61145e+02	1.34100e+03	0.0201067	460.5
1342	4.61622e+02	1.34200e+03	0.0200885	461.0
1343	4.62083e+02	1.34300e+03	0.0200734	461.5
1344	4.62556e+02	1.34400e+03	0.0200688	462.0
1345	4.63034e+02	1.34500e+03	0.0200615	462.5
1346	4.63522e+02	1.34600e+03	0.0200515	463.0
1347	4.63999e+02	1.34700e+03	0.0200383	463.5
1348	4.64482e+02	1.34800e+03	0.0200211	464.0
1349	4.64971e+02	1.34900e+03	0.0199967	464.5
1350	4.65451e+02	1.35000e+03	0.0199713	465.0
1351	4.65931e+02	1.35100e+03	0.0199482	465.5
1352	4.66411e+02	1.35200e+03	0.0199214	466.0
1353	4.66894e+02	1.35300e+03	0.0199112	466.5
1354	4.67387e+02	1.35400e+03	0.0199102	467.0
1355	4.67869e+02	1.35500e+03	0.0199138	467.5
1356	4.68347e+02	1.35600e+03	0.0199466	468.0
1357	4.68832e+02	1.35700e+03	0.019965	468.5
1358	4.69324e+02	1.35800e+03	0.0199821	469.0
1359	4.69806e+02	1.35900e+03	0.0200011	469.5
1360	4.70299e+02	1.36000e+03	0.0200253	470.0
1361	4.70779e+02	1.36100e+03	0.0200483	470.5
1362	4.71266e+02	1.36200e+03	0.0200698	471.0
1363	4.71752e+02	1.36300e+03	0.0200892	471.5
1364	4.72253e+02	1.36400e+03	0.0200967	472.0
1365	4.72744e+02	1.36500e+03	0.0200933	472.5
1366	4.73229e+02	1.36600e+03	0.0200798	473.0
1367	4.73715e+02	1.36700e+03	0.0200604	473.5
1368	4.74198e+02	1.36800e+03	0.0200117	474.0
1369	4.74684e+02	1.36900e+03	0.0199793	474.5
1370	4.75175e+02	1.37000e+03	0.0199515	475.0
1371	4.75665e+02	1.37100e+03	0.019925	475.5
1372	4.76162e+02	1.37200e+03	0.0198998	476.0
1373	4.76649e+02	1.37300e+03	0.0198743	476.5
1374	4.77129e+02	1.37400e+03	0.0198477	477.0
1375	4.77614e+02	1.37500e+03	0.01982	477.5
1376	4.78097e+02	1.37600e+03	0.019797	478.0
1377	4.78588e+02	1.37700e+03	0.0197751	478.5
1378	4.79069e+02	1.37800e+03	0.0197575	479.0
1379	4.79558e+02	1.37900e+03	0.019743	479.5
1380	4.80050e+02	1.38000e+03	0.0197362	480.0
1381	4.80546e+02	1.38100e+03	0.0197303	480.5
1382	4.81024e+02	1.38200e+03	0.0197255	481.0
1383	4.81512e+02	1.38300e+03	0.0197207	481.5
1384	4.82002e+02	1.38400e+03	0.0197231	482.0
1385	4.82494e+02	1.38500e+03	0.0197203	482.5
1386	4.82985e+02	1.38600e+03	0.0197179	483.0
1387	4.83474e+02	1.38700e+03	0.0197163	483.5
1388	4.83975e+02	1.38800e+03	0.0197108	484.0
1389	4.84466e+02	1.38900e+03	0.0197062	484.5
1390	4.84951e+02	1.39000e+03	0.0196994	485.0
1391	4.85435e+02	1.39100e+03	0.0196902	485.5
1392	4.85933e+02	1.39200e+03	0.0196746	486.0
1393	4.86425e+02	1.39300e+03	0.019658	486.5
1394	4.86918e+02	1.39400e+03	0.0196423	487.0
1395	4.87401e+02	1.39500e+03	0.0196277	487.5
1396	4.87894e+02	1.39600e+03	0.0196077	488.0
1397	4.88379e+02	1.39700e+03	0.019594	488.5
1398	4.88864e+02	1.39800e+03	0.0195814	489.0
1399	4.89356e+02	1.39900e+03	0.0195686	489.5
1400	4.89843e+02	1.40000e+03	0.0195641	490.0
1401	4.90319e+02	1.40100e+03	0.0195554	490.5
1402	4.90816e+02	1.40200e+03	0.0195477	491.0
1403	4.91315e+02	1.40300e+03	0.0195425	491.5
1404	4.91802e+02	1.40400e+03	0.0195436	492.0
1405	4.92284e+02	1.40500e+03	0.0195478	492.5
1406	4.92776e+02	1.40600e+03	0.0195532	493.0
1407	4.93279e+02	1.40700e+03	0.0195584	493.5
1408	4.93772e+02	1.40800e+03	0.0195732	494.0
1409	4.94270e+02	1.40900e+03	0.0195804	494.5
1410	4.94755e+02	1.41000e+03	0.0195851	495.0
1411	4.95255e+02	1.41100e+03	0.0195891	495.5
1412	4.95754e+02	1.41200e+03	0.0195867	496.0
1413	4.96251e+02	1.41300e+03	0.0195861	496.5
1414	4.96741e+02	1.41400e+03	0.0195824	497.0
1415	4.97240e+02	1.41500e+03	0.0195758	497.5
1416	4.97741e+02	1.41600e+03	0.0195622	498.0
1417	4.98234e+02	1.41700e+03	0.0195499	498.5
1418	4.98721e+02	1.41800e+03	0.0195394	499.0
1419	4.99220e+02	1.41900e+03	0.0195301	499.5
1420	4.99724e+02	1.42000e+03	0.0195219	500.0
1421	5.00218e+02	1.42100e+03	0.0195228	500.5
1422	5.00711e+02	1.42200e+03	0.019527	501.0
1423	5.01204e+02	1.42300e+03	0.0195308	501.5
1424	5.01695e+02	1.42400e+03	0.0195415	502.0
1425	5.02191e+02	1.42500e+03	0.0195388	502.5
1426	5.02682e+02	1.42600e+03	0.0195298	503.0
1427	5.03185e+02	1.42700e+03	0.0195181	503.5
1428	5.03678e+02	1.42800e+03	0.0194861	504.0
1429	5.04180e+02	1.42900e+03	0.0194627	504.5
1430	5.04690e+02	1.43000e+03	0.0194404	505.0
1431	5.05187e+02	1.43100e+03	0.0194172	505.5
1432	5.05676e+02	1.43200e+03	0.0193871	506.0
1433	5.06177e+02	1.43300e+03	0.0193579	506.5
1434	5.06685e+02	1.43400e+03	0.0193281	507.0
1435	5.07183e+02	1.43500e+03	0.0192978	507.5
1436	5.07680e+02	1.43600e+03	0.0192651	508.0
1437	5.08175e+02	1.43700e+03	0.0192357	508.5
1438	5.08690e+02	1.43800e+03	0.019209	509.0
1439	5.09203e+02	1.43900e+03	0.0191842	509.5
1440	5.09689e+02	1.44000e+03	0.01917	510.0
1441	5.10182e+02	1.44100e+03	0.0191587	510.5
1442	5.10689e+02	1.44200e+03	0.0191545	511.0
1443	5.11186e+02	1.44300e+03	0.0191565	511.5
1444	5.11695e+02	1.44400e+03	0.0191851	512.0
1445	5.12198e+02	1.44500e+03	0.0192107	512.5
1446	5.12709e+02	1.44600e+03	0.0192394	513.0
1447	5.13193e+02	1.44700e+03	0.0192702	513.5
1448	5.13696e+02	1.44800e+03	0.019316	514.0
1449	5.14185e+02	1.44900e+03	0.0193469	514.5
1450	5.14673e+02	1.45000e+03	0.0193719	515.0
1451	5.15173e+02	1.45100e+03	0.0193946	515.5
1452	5.15682e+02	1.45200e+03	0.0194019	516.0
1453	5.16183e+02	1.45300e+03	0.0194155	516.5
1454	5.16671e+02	1.45400e+03	0.0194298	517.0
1455	5.17143e+02	1.45500e+03	0.0194431	517.5
1456	5.17639e+02	1.45600e+03	0.0194452	518.0
1457	5.18127e+02	1.45700e+03	0.0194435	518.5
1458	5.18615e+02	1.45800e+03	0.0194353	519.0
1459	5.19114e+02	1.45900e+03	0.0194226	519.5
1460	5.19625e+02	1.46000e+03	0.0193897	520.0
1461	5.20161e+02	1.46100e+03	0.0193637	520.5
1462	5.20679e+02	1.46200e+03	0.0193415	521.0
1463	5.21215e+02	1.46300e+03	0.0193219	521.5
1464	5.21723e+02	1.46400e+03	0.0193042	522.0
1465	5.22250e+02	1.46500e+03	0.0192945	522.5
1466	5.22792e+02	1.46600e+03	0.0192894	523.0
1467	5.23339e+02	1.46700e+03	0.0192875	523.5
1468	5.23854e+02	1.46800e+03	0.0193109	524.0
1469	5.24385e+02	1.46900e+03	0.0193259	524.5
1470	5.24902e+02	1.47000e+03	0.0193422	525.0
1471	5.25432e+02	1.47100e+03	0.0193604	525.5
1472	5.25957e+02	1.47200e+03	0.0193817	526.0
1473	5.26482e+02	1.47300e+03	0.0193951	526.5
1474	5.27004e+02	1.47400e+03	0.0194026	527.0
1475	5.27537e+02	1.47500e+03	0.0194067	527.5
1476	5.28071e+02	1.47600e+03	0.0193962	528.0
1477	5.28597e+02	1.47700e+03	0.0193901	528.5
1478	5.29101e+02	1.47800e+03	0.0193869	529.0
1479	5.29594e+02	1.47900e+03	0.0193862	529.5
1480	5.30097e+02	1.48000e+03	0.0193855	530.0
1481	5.30613e+02	1.48100e+03	0.0193899	530.5
1482	5.31113e+02	1.48200e+03	0.0193945	531.0
1483	5.31638e+02	1.48300e+03	0.0193985	531.5
1484	5.32142e+02	1.48400e+03	0.0194108	532.0
1485	5.32651e+02	1.48500e+03	0.0194154	532.5
1486	5.33166e+02	1.48600e+03	0.0194201	533.0
1487	5.33710e+02	1.48700e+03	0.019426	533.5
1488	5.34196e+02	1.48800e+03	0.0194245	534.0
1489	5.34844e+02	1.48900e+03	0.0194255	534.5
1490	5.35391e+02	1.49000e+03	0.0194226	535.0
1491	5.35825e+02	1.49100e+03	0.0194158	535.5
1492	5.36379e+02	1.49200e+03	0.0194014	536.0
1493	5.36869e+02	1.49300e+03	0.0193845	536.5
1494	5.37379e+02	1.49400e+03	0.0193676	537.0
1495	5.37968e+02	1.49500e+03	0.0193515	537.5
1496	5.38451e+02	1.49600e+03	0.0193273	538.0
1497	5.38998e+02	1.49700e+03	0.0193145	538.5
1498	5.39480e+02	1.49800e+03	0.0193068	539.0
1499	5.40028e+02	1.49900e+03	0.019301	539.5
1500	5.40567e+02	1.50000e+03	0.0193109	540.0
1501	5.41073e+02	1.50100e+03	0.0193148	540.5
1502	5.41630e+02	1.50200e+03	0.0193191	541.0
1503	5.42078e+02	1.50300e+03	0.0193239	541.5
1504	5.42590e+02	1.50400e+03	0.0193298	542.0
1505	5.43225e+02	1.50500e+03	0.0193319	542.5
1506	5.44039e+02	1.50600e+03	0.0193293	543.0
1507	5.44664e+02	1.50700e+03	0.0193233	543.5
1508	5.44956e+02	1.50800e+03	0.0193016	544.0
1509	5.45344e+02	1.50900e+03	0.0192781	544.5
1510	5.45772e+02	1.51000e+03	0.0192513	545.0
1511	5.46255e+02	1.51100e+03	0.019223	545.5
1512	5.46749e+02	1.51200e+03	0.0191788	546.0
1513	5.47195e+02	1.51300e+03	0.0191447	546.5
1514	5.47600e+02	1.51400e+03	0.0191125	547.0
1515	5.48027e+02	1.51500e+03	0.0190802	547.5
1516	5.48491e+02	1.51600e+03	0.0190523	548.0
1517	5.48970e+02	1.51700e+03	0.0190226	548.5
1518	5.49459e+02	1.51800e+03	0.0189956	549.0
1519	5.49947e+02	1.51900e+03	0.0189722	549.5
1520	5.50409e+02	1.52000e+03	0.0189662	550.0
1521	5.50885e+02	1.52100e+03	0.0189698	550.5
1522	5.51361e+02	1.52200e+03	0.0189834	551.0
1523	5.51876e+02	1.52300e+03	0.019003	551.5
1524	5.52379e+02	1.52400e+03	0.0190549	552.0
1525	5.52860e+02	1.52500e+03	0.0190882	552.5
1526	5.53351e+02	1.52600e+03	0.0191164	553.0
1527	5.53839e+02	1.52700e+03	0.0191437	553.5
1528	5.54343e+02	1.52800e+03	0.0191724	554.0
1529	5.54829e+02	1.52900e+03	0.0192031	554.5
1530	5.55323e+02	1.53000e+03	0.0192351	555.0
1531	5.55818e+02	1.53100e+03	0.0192669	555.5
1532	5.56308e+02	1.53200e+03	0.0192931	556.0
1533	5.56789e+02	1.53300e+03	0.0193132	556.5
1534	5.57296e+02	1.53400e+03	0.0193273	557.0
1535	5.57798e+02	1.53500e+03	0.0193382	557.5
1536	5.58286e+02	1.53600e+03	0.0193345	558.0
1537	5.58766e+02	1.53700e+03	0.019337	558.5
1538	5.59257e+02	1.53800e+03	0.0193412	559.0
1539	5.59762e+02	1.53900e+03	0.0193456	559.5
1540	5.60271e+02	1.54000e+03	0.0193433	560.0
1541	5.60762e+02	1.54100e+03	0.0193378	560.5
1542	5.61281e+02	1.54200e+03	0.0193268	561.0
1543	5.61778e+02	1.54300e+03	0.0193124	561.5
1544	5.62268e+02	1.54400e+03	0.0192853	562.0
1545	5.62764e+02	1.54500e+03	0.0192611	562.5
1546	5.63231e+02	1.54600e+03	0.0192373	563.0
1547	5.63713e+02	1.54700e+03	0.0192138	563.5
1548	5.64183e+02	1.54800e+03	0.0191853	564.0
1549	5.64659e+02	1.54900e+03	0.0191638	564.5
1550	5.65154e+02	1.55000e+03	0.0191471	565.0
1551	5.65657e+02	1.55100e+03	0.0191338	565.5
1552	5.66154e+02	1.55200e+03	0.0191406	566.0
1553	5.66656e+02	1.55300e+03	0.0191495	566.5
1554	5.67161e+02	1.55400e+03	0.019166	567.0
1555	5.67685e+02	1.55500e+03	0.0191877	567.5
1556	5.68181e+02	1.55600e+03	0.0192339	568.0
1557	5.68686e+02	1.55700e+03	0.0192673	568.5
1558	5.69167e+02	1.55800e+03	0.0192943	569.0
1559	5.69716e+02	1.55900e+03	0.0193176	569.5
1560	5.70217e+02	1.56000e+03	0.0193308	570.0
1561	5.70720e+02	1.56100e+03	0.0193372	570.5
1562	5.71254e+02	1.56200e+03	0.0193391	571.0
1563	5.71791e+02	1.56300e+03	0.0193389	571.5
1564	5.72270e+02	1.56400e+03	0.0193172	572.0
1565	5.72794e+02	1.56500e+03	0.0193094	572.5
1566	5.73316e+02	1.56600e+03	0.0193062	573.0
1567	5.73808e+02	1.56700e+03	0.0193058	573.5
1568	5.74307e+02	1.56800e+03	0.0193194	574.0
1569	5.74793e+02	1.56900e+03	0.019331	574.5
1570	5.75320e+02	1.57000e+03	0.0193433	575.0
1571	5.75825e+02	1.57100e+03	0.019356	575.5
1572	5.76338e+02	1.57200e+03	0.0193747	576.0
1573	5.76843e+02	1.57300e+03	0.0193853	576.5
1574	5.77337e+02	1.57400e+03	0.0193916	577.0
1575	5.77820e+02	1.57500e+03	0.0193955	577.5
1576	5.78325e+02	1.57600e+03	0.019382	578.0
1577	5.78847e+02	1.57700e+03	0.0193685	578.5
1578	5.79363e+02	1.57800e+03	0.019348	579.0
1579	5.79877e+02	1.57900e+03	0.0193219	579.5
1580	5.80380e+02	1.58000e+03	0.0192797	580.0
1581	5.80880e+02	1.58100e+03	0.0192483	580.5
1582	5.81383e+02	1.58200e+03	0.019223	581.0
1583	5.81901e+02	1.58300e+03	0.0192015	581.5
1584	5.82422e+02	1.58400e+03	0.0191922	582.0
1585	5.82951e+02	1.58500e+03	0.0191877	582.5
1586	5.83469e+02	1.58600e+03	0.019186	583.0
1587	5.84024e+02	1.58700e+03	0.0191851	583.5
1588	5.84563e+02	1.58800e+03	0.0192011	584.0
1589	5.85122e+02	1.58900e+03	0.0192047	584.5
1590	5.85668e+02	1.59000e+03	0.0192072	585.0
1591	5.86267e+02	1.59100e+03	0.019211	585.5
1592	5.86892e+02	1.59200e+03	0.0192131	586.0
1593	5.87468e+02	1.59300e+03	0.0192233	586.5
1594	5.88006e+02	1.59400e+03	0.0192368	587.0
1595	5.88627e+02	1.59500e+03	0.0192508	587.5
1596	5.89091e+02	1.59600e+03	0.019275	588.0
1597	5.89884e+02	1.59700e+03	0.0192919	588.5
1598	5.90778e+02	1.59800e+03	0.0193081	589.0
1599	5.91495e+02	1.59900e+03	0.0193249	589.5
1600	5.93181e+02	1.60000e+03	0.0193405	590.0
1601	5.93796e+02	1.60100e+03	0.0193602	590.5
1602	5.94086e+02	1.60200e+03	0.0193807	591.0
1603	5.94392e+02	1.60300e+03	0.0194003	591.5
1604	5.94720e+02	1.60400e+03	0.0194174	592.0
1605	5.95088e+02	1.60500e+03	0.0194268	592.5
1606	5.95563e+02	1.60600e+03	0.0194318	593.0
1607	5.96045e+02	1.60700e+03	0.0194353	593.5
1608	5.96517e+02	1.60800e+03	0.0194229	594.0
1609	5.96998e+02	1.60900e+03	0.0194189	594.5
1610	5.97408e+02	1.61000e+03	0.0194164	595.0
1611	5.97835e+02	1.61100e+03	0.0194131	595.5
1612	5.98268e+02	1.61200e+03	0.0194062	596.0
1613	5.98668e+02	1.61300e+03	0.0193985	596.5
1614	5.99116e+02	1.61400e+03	0.0193906	597.0
1615	5.99596e+02	1.61500e+03	0.0193834	597.5
1616	6.00059e+02	1.61600e+03	0.0193819	598.0
1617	6.00519e+02	1.61700e+03	0.0193897	598.5
1618	6.00962e+02	1.61800e+03	0.0194059	599.0
1619	6.01396e+02	1.61900e+03	0.0194265	599.5
1620	6.01823e+02	1.62000e+03	0.0194658	600.0
1621	6.02288e+02	1.62100e+03	0.0194913	600.5
1622	6.02766e+02	1.62200e+03	0.0195095	601.0
1623	6.03254e+02	1.62300e+03	0.0195236	601.5
1624	6.03756e+02	1.62400e+03	0.0195233	602.0
1625	6.04193e+02	1.62500e+03	0.0195203	602.5
1626	6.04662e+02	1.62600e+03	0.0195131	603.0
1627	6.05142e+02	1.62700e+03	0.0195029	603.5
1628	6.05615e+02	1.62800e+03	0.019468	604.0
1629	6.06130e+02	1.62900e+03	0.0194413	604.5
1630	6.06647e+02	1.63000e+03	0.0194138	605.0
1631	6.07129e+02	1.63100e+03	0.0193847	605.5
1632	6.07588e+02	1.63200e+03	0.0193539	606.0
1633	6.08033e+02	1.63300e+03	0.0193296	606.5
1634	6.08485e+02	1.63400e+03	0.0193099	607.0
1635	6.08935e+02	1.63500e+03	0.019293	607.5
1636	6.09399e+02	1.63600e+03	0.0192875	608.0
1637	6.09844e+02	1.63700e+03	0.0192776	608.5
1638	6.10290e+02	1.63800e+03	0.0192662	609.0
1639	6.10740e+02	1.63900e+03	0.0192538	609.5
1640	6.11199e+02	1.64000e+03	0.0192444	610.0
1641	6.11655e+02	1.64100e+03	0.0192336	610.5
1642	6.12082e+02	1.64200e+03	0.0192245	611.0
1643	6.12531e+02	1.64300e+03	0.0192174	611.5
1644	6.12991e+02	1.64400e+03	0.0192119	612.0
1645	6.13450e+02	1.64500e+03	0.0192084	612.5
1646	6.13914e+02	1.64600e+03	0.0192052	613.0
1647	6.14314e+02	1.64700e+03	0.0192019	613.5
1648	6.14732e+02	1.64800e+03	0.019204	614.0
1649	6.15195e+02	1.64900e+03	0.0192039	614.5
1650	6.15661e+02	1.65000e+03	0.0192061	615.0
1651	6.16121e+02	1.65100e+03	0.0192106	615.5
1652	6.16577e+02	1.65200e+03	0.0192151	616.0
1653	6.17059e+02	1.65300e+03	0.0192181	616.5
1654	6.17531e+02	1.65400e+03	0.0192184	617.0
1655	6.18013e+02	1.65500e+03	0.0192163	617.5
1656	6.18494e+02	1.65600e+03	0.01921	618.0
1657	6.18985e+02	1.65700e+03	0.0192042	618.5
1658	6.19470e+02	1.65800e+03	0.0192029	619.0
1659	6.19939e+02	1.65900e+03	0.0192049	619.5
1660	6.20403e+02	1.66000e+03	0.0192097	620.0
1661	6.20884e+02	1.66100e+03	0.0192217	620.5
1662	6.21362e+02	1.66200e+03	0.019237	621.0
1663	6.21847e+02	1.66300e+03	0.0192533	621.5
1664	6.22336e+02	1.66400e+03	0.0192858	622.0
1665	6.22830e+02	1.66500e+03	0.0193082	622.5
1666	6.23314e+02	1.66600e+03	0.0193285	623.0
1667	6.23806e+02	1.66700e+03	0.0193484	623.5
1668	6.24314e+02	1.66800e+03	0.01936	624.0
1669	6.24812e+02	1.66900e+03	0.0193682	624.5
1670	6.25300e+02	1.67000e+03	0.0193673	625.0
1671	6.25779e+02	1.67100e+03	0.0193601	625.5
1672	6.26270e+02	1.67200e+03	0.0193338	626.0
1673	6.26747e+02	1.67300e+03	0.0193104	626.5
1674	6.27239e+02	1.67400e+03	0.0192879	627.0
1675	6.27714e+02	1.67500e+03	0.0192666	627.5
1676	6.28208e+02	1.67600e+03	0.0192314	628.0
1677	6.28700e+02	1.67700e+03	0.0192055	628.5
1678	6.29176e+02	1.67800e+03	0.0191818	629.0
1679	6.29642e+02	1.67900e+03	0.0191582	629.5
1680	6.30118e+02	1.68000e+03	0.0191417	630.0
1681	6.30585e+02	1.68100e+03	0.0191228	630.5
1682	6.31052e+02	1.68200e+03	0.0191069	631.0
1683	6.31524e+02	1.68300e+03	0.0190941	631.5
1684	6.32008e+02	1.68400e+03	0.0190965	632.0
1685	6.32483e+02	1.68500e+03	0.019105	632.5
1686	6.32952e+02	1.68600e+03	0.0191186	633.0
1687	6.33415e+02	1.68700e+03	0.0191345	633.5
1688	6.33884e+02	1.68800e+03	0.019172	634.0
1689	6.34374e+02	1.68900e+03	0.0191921	634.5
1690	6.34856e+02	1.69000e+03	0.0192057	635.0
1691	6.35337e+02	1.69100e+03	0.0192179	635.5
1692	6.35822e+02	1.69200e+03	0.0192193	636.0
1693	6.36289e+02	1.69300e+03	0.0192244	636.5
1694	6.36766e+02	1.69400e+03	0.019229	637.0
1695	6.37252e+02	1.69500e+03	0.0192329	637.5
1696	6.37735e+02	1.69600e+03	0.0192283	638.0
1697	6.38205e+02	1.69700e+03	0.019223	638.5
1698	6.38689e+02	1.69800e+03	0.0192163	639.0
1699	6.39172e+02	1.69900e+03	0.0192094	639.5
1700	6.39652e+02	1.70000e+03	0.0192021	640.0
1701	6.40133e+02	1.70100e+03	0.0192033	640.5
1702	6.40620e+02	1.70200e+03	0.0192101	641.0
1703	6.41099e+02	1.70300e+03	0.0192199	641.5
1704	6.41583e+02	1.70400e+03	0.0192444	642.0
1705	6.42057e+02	1.70500e+03	0.0192613	642.5
1706	6.42541e+02	1.70600e+03	0.0192753	643.0
1707	6.43026e+02	1.70700e+03	0.019288	643.5
1708	6.43515e+02	1.70800e+03	0.0192989	644.0
1709	6.43984e+02	1.70900e+03	0.0193075	644.5
1710	6.44466e+02	1.71000e+03	0.0193145	645.0
1711	6.44951e+02	1.71100e+03	0.0193206	645.5
1712	6.45430e+02	1.71200e+03	0.0193183	646.0
1713	6.45924e+02	1.71300e+03	0.0193182	646.5
1714	6.46403e+02	1.71400e+03	0.0193178	647.0
1715	6.46886e+02	1.71500e+03	0.019317	647.5
1716	6.47373e+02	1.71600e+03	0.0193174	648.0
1717	6.47853e+02	1.71700e+03	0.0193215	648.5
1718	6.48340e+02	1.71800e+03	0.0193285	649.0
1719	6.48813e+02	1.71900e+03	0.0193372	649.5
1720	6.49296e+02	1.72000e+03	0.0193482	650.0
1721	6.49771e+02	1.72100e+03	0.0193512	650.5
1722	6.50252e+02	1.72200e+03	0.0193474	651.0
1723	6.50732e+02	1.72300e+03	0.0193393	651.5
1724	6.51224e+02	1.72400e+03	0.019313	652.0
1725	6.51714e+02	1.72500e+03	0.0192892	652.5
1726	6.52182e+02	1.72600e+03	0.0192655	653.0
1727	6.52670e+02	1.72700e+03	0.0192413	653.5
1728	6.53160e+02	1.72800e+03	0.0192035	654.0
1729	6.53651e+02	1.72900e+03	0.019174	654.5
1730	6.54125e+02	1.73000e+03	0.0191461	655.0
1731	6.54618e+02	1.73100e+03	0.019118	655.5
1732	6.55109e+02	1.73200e+03	0.019097	656.0
1733	6.55596e+02	1.73300e+03	0.019076	656.5
1734	6.56075e+02	1.73400e+03	0.0190586	657.0
1735	6.56557e+02	1.73500e+03	0.019044	657.5
1736	6.57054e+02	1.73600e+03	0.0190382	658.0
1737	6.57539e+02	1.73700e+03	0.019031	658.5
1738	6.58024e+02	1.73800e+03	0.0190247	659.0
1739	6.58507e+02	1.73900e+03	0.0190194	659.5
1740	6.58997e+02	1.74000e+03	0.0190275	660.0
1741	6.59488e+02	1.74100e+03	0.0190359	660.5
1742	6.59969e+02	1.74200e+03	0.0190495	661.0
1743	6.60468e+02	1.74300e+03	0.0190672	661.5
1744	6.60956e+02	1.74400e+03	0.0191009	662.0
1745	6.61435e+02	1.74500e+03	0.0191299	662.5
1746	6.61927e+02	1.74600e+03	0.0191566	663.0
1747	6.62430e+02	1.74700e+03	0.0191814	663.5
1748	6.62912e+02	1.74800e+03	0.0192061	664.0
1749	6.63404e+02	1.74900e+03	0.0192236	664.5
1750	6.63883e+02	1.75000e+03	0.0192381	665.0
1751	6.64373e+02	1.75100e+03	0.019252	665.5
1752	6.64864e+02	1.75200e+03	0.0192529	666.0
1753	6.65343e+02	1.75300e+03	0.0192623	666.5
1754	6.65830e+02	1.75400e+03	0.0192722	667.0
1755	6.66317e+02	1.75500e+03	0.0192809	667.5
1756	6.66805e+02	1.75600e+03	0.0192892	668.0
1757	6.67296e+02	1.75700e+03	0.0192931	668.5
1758	6.67778e+02	1.75800e+03	0.0192973	669.0
1759	6.68266e+02	1.75900e+03	0.0193032	669.5
1760	6.68764e+02	1.76000e+03	0.0193049	670.0
1761	6.69247e+02	1.76100e+03	0.0193119	670.5
1762	6.69746e+02	1.76200e+03	0.0193196	671.0
1763	6.70239e+02	1.76300e+03	0.0193265	671.5
1764	6.70726e+02	1.76400e+03	0.0193324	672.0
1765	6.71210e+02	1.76500e+03	0.0193311	672.5
1766	6.71701e+02	1.76600e+03	0.0193263	673.0
1767	6.72189e+02	1.76700e+03	0.0193199	673.5
1768	6.72678e+02	1.76800e+03	0.0193005	674.0
1769	6.73176e+02	1.76900e+03	0.0192883	674.5
1770	6.73660e+02	1.77000e+03	0.0192762	675.0
1771	6.74140e+02	1.77100e+03	0.0192631	675.5
1772	6.74637e+02	1.77200e+03	0.0192449	676.0
1773	6.75139e+02	1.77300e+03	0.0192244	676.5
1774	6.75617e+02	1.77400e+03	0.019206	677.0
1775	6.76095e+02	1.77500e+03	0.0191897	677.5
1776	6.76589e+02	1.77600e+03	0.0191724	678.0
1777	6.77085e+02	1.77700e+03	0.0191618	678.5
1778	6.77574e+02	1.77800e+03	0.0191534	679.0
1779	6.78059e+02	1.77900e+03	0.0191449	679.5
1780	6.78551e+02	1.78000e+03	0.0191429	680.0
1781	6.79033e+02	1.78100e+03	0.0191291	680.5
1782	6.79525e+02	1.78200e+03	0.0191103	681.0
1783	6.80021e+02	1.78300e+03	0.019091	681.5
1784	6.80515e+02	1.78400e+03	0.0190629	682.0
1785	6.81017e+02	1.78500e+03	0.0190433	682.5
1786	6.81496e+02	1.78600e+03	0.0190265	683.0
1787	6.81992e+02	1.78700e+03	0.0190105	683.5
1788	6.82477e+02	1.78800e+03	0.0190002	684.0
1789	6.82974e+02	1.78900e+03	0.0189842	684.5
1790	6.83474e+02	1.79000e+03	0.0189682	685.0
1791	6.83974e+02	1.79100e+03	0.0189546	685.5
1792	6.84468e+02	1.79200e+03	0.0189521	686.0
1793	6.84959e+02	1.79300e+03	0.0189593	686.5
1794	6.85478e+02	1.79400e+03	0.0189768	687.0
1795	6.85683e+02	1.79500e+03	0.0190012	687.5
1796	6.85856e+02	1.79600e+03	0.0190576	688.0
1797	6.86160e+02	1.79700e+03	0.019103	688.5
1798	6.86518e+02	1.79800e+03	0.0191457	689.0
1799	6.86872e+02	1.79900e+03	0.019185	689.5
1800	6.87229e+02	1.80000e+03	0.0192242	690.0
1801	6.87559e+02	1.80100e+03	0.019252	690.5
1802	6.87894e+02	1.80200e+03	0.0192702	691.0
1803	6.88204e+02	1.80300e+03	0.019282	691.5
1804	6.88514e+02	1.80400e+03	0.0192657	692.0
1805	6.88803e+02	1.80500e+03	0.0192556	692.5
1806	6.89086e+02	1.80600e+03	0.0192407	693.0
1807	6.89359e+02	1.80700e+03	0.0192216	693.5
1808	6.89632e+02	1.80800e+03	0.0191929	694.0
1809	6.89885e+02	1.80900e+03	0.0191761	694.5
1810	6.90133e+02	1.81000e+03	0.0191673	695.0
1811	6.90369e+02	1.81100e+03	0.0191636	695.5
1812	6.90610e+02	1.81200e+03	0.019171	696.0
1813	6.90837e+02	1.81300e+03	0.0191727	696.5
1814	6.91049e+02	1.81400e+03	0.019171	697.0
1815	6.91270e+02	1.81500e+03	0.0191669	697.5
1816	6.91474e+02	1.81600e+03	0.0191557	698.0
1817	6.91675e+02	1.81700e+03	0.0191394	698.5
1818	6.91876e+02	1.81800e+03	0.0191227	699.0
1819	6.92075e+02	1.81900e+03	0.0191078	699.5
1820	6.92254e+02	1.82000e+03	0.0190813	700.0
1821	6.92429e+02	1.82100e+03	0.0190654	700.0
1822	6.92608e+02	1.82200e+03	0.0190505	700.0
1823	6.92780e+02	1.82300e+03	0.0190342	700.0
1824	6.92944e+02	1.82400e+03	0.0190294	700.0
1825	6.93107e+02	1.82500e+03	0.0190181	700.0
1826	6.93257e+02	1.82600e+03	0.0190064	700.0
1827	6.93394e+02	1.82700e+03	0.0189957	700.0
1828	6.93532e+02	1.82800e+03	0.0189838	700.0
1829	6.93685e+02	1.82900e+03	0.018974	700.0
1830	6.93810e+02	1.83000e+03	0.0189633	700.0
1831	6.93926e+02	1.83100e+03	0.0189521	700.0
1832	6.94061e+02	1.83200e+03	0.0189466	700.0
1833	6.94186e+02	1.83300e+03	0.0189422	700.0
1834	6.94304e+02	1.83400e+03	0.0189418	700.0
1835	6.94425e+02	1.83500e+03	0.0189445	700.0
1836	6.94539e+02	1.83600e+03	0.0189556	700.0
1837	6.94639e+02	1.83700e+03	0.0189648	700.0
1838	6.94751e+02	1.83800e+03	0.0189719	700.0
1839	6.94858e+02	1.83900e+03	0.0189766	700.0
1840	6.94957e+02	1.84000e+03	0.0189801	700.0
1841	6.95054e+02	1.84100e+03	0.0189767	700.0
1842	6.95145e+02	1.84200e+03	0.0189704	700.0
1843	6.95248e+02	1.84300e+03	0.0189635	700.0
1844	6.95341e+02	1.84400e+03	0.0189483	700.0
1845	6.95427e+02	1.84500e+03	0.018946	700.0
1846	6.95521e+02	1.84600e+03	0.0189506	700.0
1847	6.95606e+02	1.84700e+03	0.0189588	700.0
1848	6.95691e+02	1.84800e+03	0.0189778	700.0
1849	6.95761e+02	1.84900e+03	0.0189871	700.0
1850	6.95833e+02	1.85000e+03	0.0189949	700.0
1851	6.95919e+02	1.85100e+03	0.019003	700.0
1852	6.95984e+02	1.85200e+03	0.0190073	700.0
1853	6.96060e+02	1.85300e+03	0.0190146	700.0
1854	6.96138e+02	1.85400e+03	0.0190232	700.0
1855	6.96211e+02	1.85500e+03	0.0190324	700.0
1856	6.96269e+02	1.85600e+03	0.0190448	700.0
1857	6.96342e+02	1.85700e+03	0.0190566	700.0
1858	6.96408e+02	1.85800e+03	0.0190685	700.0
1859	6.96472e+02	1.85900e+03	0.0190803	700.0
1860	6.96530e+02	1.86000e+03	0.0190914	700.0
1861	6.96587e+02	1.86100e+03	0.0190997	700.0
1862	6.96659e+02	1.86200e+03	0.0191056	700.0
1863	6.96704e+02	1.86300e+03	0.0191101	700.0
1864	6.96767e+02	1.86400e+03	0.0191008	700.0
1865	6.96812e+02	1.86500e+03	0.0190879	700.0
1866	6.96870e+02	1.86600e+03	0.0190675	700.0
1867	6.96916e+02	1.86700e+03	0.0190424	700.0
1868	6.96973e+02	1.86800e+03	0.0190018	700.0
1869	6.97031e+02	1.86900e+03	0.0189715	700.0
1870	6.97074e+02	1.87000e+03	0.0189448	700.0
1871	6.97119e+02	1.87100e+03	0.0189199	700.0
1872	6.97170e+02	1.87200e+03	0.0189003	700.0
1873	6.97207e+02	1.87300e+03	0.0188795	700.0
1874	6.97250e+02	1.87400e+03	0.0188579	700.0
1875	6.97296e+02	1.87500e+03	0.0188369	700.0
1876	6.97344e+02	1.87600e+03	0.0188285	700.0
1877	6.97372e+02	1.87700e+03	0.0188248	700.0
1878	6.97419e+02	1.87800e+03	0.0188291	700.0
1879	6.97464e+02	1.87900e+03	0.0188382	700.0
1880	6.97499e+02	1.88000e+03	0.0188721	700.0
1881	6.97536e+02	1.88100e+03	0.0189043	700.0
1882	6.97562e+02	1.88200e+03	0.0189411	700.0
1883	6.97607e+02	1.88300e+03	0.0189814	700.0
1884	6.97646e+02	1.88400e+03	0.0190433	700.0
1885	6.97669e+02	1.88500e+03	0.019092	700.0
1886	6.97706e+02	1.88600e+03	0.0191346	700.0
1887	6.97738e+02	1.88700e+03	0.0191737	700.0
1888	6.97777e+02	1.88800e+03	0.0191939	700.0
1889	6.97801e+02	1.88900e+03	0.0192077	700.0
1890	6.97831e+02	1.89000e+03	0.0192106	700.0
1891	6.97864e+02	1.89100e+03	0.0192052	700.0
1892	6.97889e+02	1.89200e+03	0.0191606	700.0
1893	6.97913e+02	1.89300e+03	0.0191294	700.0
1894	6.97943e+02	1.89400e+03	0.0190986	700.0
1895	6.97976e+02	1.89500e+03	0.0190665	700.0
1896	6.97998e+02	1.89600e+03	0.0190235	700.0
1897	6.98017e+02	1.89700e+03	0.0189903	700.0
1898	6.98053e+02	1.89800e+03	0.0189612	700.0
1899	6.98078e+02	1.89900e+03	0.0189338	700.0
1900	6.98099e+02	1.90000e+03	0.0189198	700.0
1901	6.98120e+02	1.90100e+03	0.0189038	700.0
1902	6.98145e+02	1.90200e+03	0.0188903	700.0
1903	6.98163e+02	1.90300e+03	0.0188793	700.0
1904	6.98174e+02	1.90400e+03	0.0188873	700.0
1905	6.98207e+02	1.90500e+03	0.0188973	700.0
1906	6.98225e+02	1.90600e+03	0.0189117	700.0
1907	6.98237e+02	1.90700e+03	0.0189288	700.0
1908	6.98252e+02	1.90800e+03	0.0189653	700.0
1909	6.98272e+02	1.90900e+03	0.0189917	700.0
1910	6.98301e+02	1.91000e+03	0.0190151	700.0
1911	6.98312e+02	1.91100e+03	0.0190371	700.0
1912	6.98329e+02	1.91200e+03	0.0190516	700.0
1913	6.98340e+02	1.91300e+03	0.0190616	700.0
1914	6.98351e+02	1.91400e+03	0.0190644	700.0
1915	6.98379e+02	1.91500e+03	0.0190612	700.0
1916	6.98389e+02	1.91600e+03	0.0190332	700.0
1917	6.98409e+02	1.91700e+03	0.0190118	700.0
1918	6.98424e+02	1.91800e+03	0.0189904	700.0
1919	6.98431e+02	1.91900e+03	0.0189682	700.0
1920	6.98454e+02	1.92000e+03	0.0189372	700.0
1921	6.98473e+02	1.92100e+03	0.018917	700.0
1922	6.98479e+02	1.92200e+03	0.0189022	700.0
1923	6.98495e+02	1.92300e+03	0.0188903	700.0
1924	6.98512e+02	1.92400e+03	0.0188975	700.0
1925	6.98519e+02	1.92500e+03	0.0189016	700.0
1926	6.98529e+02	1.92600e+03	0.018908	700.0
1927	6.98541e+02	1.92700e+03	0.0189166	700.0
1928	6.98560e+02	1.92800e+03	0.0189386	700.0
1929	6.98567e+02	1.92900e+03	0.0189552	700.0
1930	6.98585e+02	1.93000e+03	0.0189715	700.0
1931	6.98598e+02	1.93100e+03	0.0189885	700.0
1932	6.98610e+02	1.93200e+03	0.0190072	700.0
1933	6.98618e+02	1.93300e+03	0.0190241	700.0
1934	6.98624e+02	1.93400e+03	0.019041	700.0
1935	6.98650e+02	1.93500e+03	0.0190595	700.0
1936	6.98653e+02	1.93600e+03	0.0190794	700.0
1937	6.98661e+02	1.93700e+03	0.0190969	700.0
1938	6.98669e+02	1.93800e+03	0.0191111	700.0
1939	6.98684e+02	1.93900e+03	0.019123	700.0
1940	6.98692e+02	1.94000e+03	0.0191266	700.0
1941	6.98697e+02	1.94100e+03	0.0191234	700.0
1942	6.98720e+02	1.94200e+03	0.0191114	700.0
1943	6.98724e+02	1.94300e+03	0.0190943	700.0
1944	6.98725e+02	1.94400e+03	0.0190554	700.0
1945	6.98735e+02	1.94500e+03	0.0190266	700.0
1946	6.98736e+02	1.94600e+03	0.0189998	700.0
1947	6.98756e+02	1.94700e+03	0.0189733	700.0
1948	6.98760e+02	1.94800e+03	0.0189455	700.0
1949	6.98768e+02	1.94900e+03	0.0189205	700.0
1950	6.98779e+02	1.95000e+03	0.0188969	700.0
1951	6.98791e+02	1.95100e+03	0.0188752	700.0
1952	6.98793e+02	1.95200e+03	0.0188645	700.0
1953	6.98800e+02	1.95300e+03	0.0188529	700.0
1954	6.98808e+02	1.95400e+03	0.0188413	700.0
1955	6.98810e+02	1.95500e+03	0.0188291	700.0
1956	6.98818e+02	1.95600e+03	0.0188226	700.0
1957	6.98818e+02	1.95700e+03	0.0188134	700.0
1958	6.98821e+02	1.95800e+03	0.0188057	700.0
1959	6.98841e+02	1.95900e+03	0.0187999	700.0
1960	6.98830e+02	1.96000e+03	0.0188035	700.0
1961	6.98843e+02	1.96100e+03	0.0188125	700.0
1962	6.98848e+02	1.96200e+03	0.0188258	700.0
1963	6.98854e+02	1.96300e+03	0.0188416	700.0
1964	6.98858e+02	1.96400e+03	0.018875	700.0
1965	6.98871e+02	1.96500e+03	0.0188973	700.0
1966	6.98874e+02	1.96600e+03	0.0189159	700.0
1967	6.98876e+02	1.96700e+03	0.0189328	700.0
1968	6.98889e+02	1.96800e+03	0.0189386	700.0
1969	6.98890e+02	1.96900e+03	0.0189431	700.0
1970	6.98885e+02	1.97000e+03	0.0189443	700.0
1971	6.98898e+02	1.97100e+03	0.0189432	700.0
1972	6.98899e+02	1.97200e+03	0.0189274	700.0
1973	6.98904e+02	1.97300e+03	0.0189187	700.0
1974	6.98915e+02	1.97400e+03	0.0189147	700.0
1975	6.98914e+02	1.97500e+03	0.0189136	700.0
1976	6.98920e+02	1.97600e+03	0.0189189	700.0
1977	6.98924e+02	1.97700e+03	0.0189277	700.0
1978	6.98918e+02	1.97800e+03	0.018939	700.0
1979	6.98926e+02	1.97900e+03	0.018951	700.0
1980	6.98935e+02	1.98000e+03	0.0189675	700.0
1981	6.98933e+02	1.98100e+03	0.0189727	700.0
1982	6.98936e+02	1.98200e+03	0.0189727	700.0
1983	6.98935e+02	1.98300e+03	0.0189701	700.0
1984	6.98946e+02	1.98400e+03	0.0189525	700.0
1985	6.98951e+02	1.98500e+03	0.0189435	700.0
1986	6.98952e+02	1.98600e+03	0.0189373	700.0
1987	6.98957e+02	1.98700e+03	0.0189334	700.0
1988	6.98958e+02	1.98800e+03	0.0189411	700.0
1989	6.98960e+02	1.98900e+03	0.0189505	700.0
1990	6.98967e+02	1.99000e+03	0.018961	700.0
1991	6.98966e+02	1.99100e+03	0.0189721	700.0
1992	6.98968e+02	1.99200e+03	0.0189931	700.0
1993	6.98970e+02	1.99300e+03	0.0190031	700.0
1994	6.98973e+02	1.99400e+03	0.0190079	700.0
1995	6.98971e+02	1.99500e+03	0.01901	700.0
1996	6.98965e+02	1.99600e+03	0.0189961	700.0
1997	6.98968e+02	1.99700e+03	0.0189867	700.0
1998	6.98981e+02	1.99800e+03	0.0189772	700.0
1999	6.98978e+02	1.99900e+03	0.0189672	700.0
2000	6.98974e+02	2.00000e+03	0.0189535	700.0
2001	6.98975e+02	2.00100e+03	0.0189451	700.0
2002	6.98987e+02	2.00200e+03	0.018939	700.0
2003	6.98986e+02	2.00300e+03	0.0189338	700.0
2004	6.98987e+02	2.00400e+03	0.0189351	700.0
2005	6.98984e+02	2.00500e+03	0.0189325	700.0
2006	6.98988e+02	2.00600e+03	0.0189289	700.0
2007	6.98992e+02	2.00700e+03	0.0189248	700.0
2008	6.98992e+02	2.00800e+03	0.0189179	700.0
2009	6.98999e+02	2.00900e+03	0.0189113	700.0
2010	6.99001e+02	2.01000e+03	0.0189069	700.0
2011	6.98997e+02	2.01100e+03	0.0189054	700.0
2012	6.98997e+02	2.01200e+03	0.0189091	700.0
2013	6.98999e+02	2.01300e+03	0.0189158	700.0
2014	6.98994e+02	2.01400e+03	0.0189252	700.0
2015	6.99000e+02	2.01500e+03	0.0189366	700.0
2016	6.99011e+02	2.01600e+03	0.018965	700.0
2017	6.99011e+02	2.01700e+03	0.0189882	700.0
2018	6.98998e+02	2.01800e+03	0.0190115	700.0
2019	6.99003e+02	2.01900e+03	0.0190354	700.0
2020	6.99010e+02	2.02000e+03	0.0190623	700.0
2021	6.99007e+02	2.02100e+03	0.0190842	700.0
2022	6.99009e+02	2.02200e+03	0.0191025	700.0
2023	6.99012e+02	2.02300e+03	0.0191184	700.0
2024	6.99010e+02	2.02400e+03	0.0191199	700.0
2025	6.99014e+02	2.02500e+03	0.0191202	700.0
2026	6.99014e+02	2.02600e+03	0.0191166	700.0
2027	6.99017e+02	2.02700e+03	0.01911	700.0
2028	6.99018e+02	2.02800e+03	0.0190855	700.0
2029	6.99014e+02	2.02900e+03	0.0190682	700.0
2030	6.99012e+02	2.03000e+03	0.0190515	700.0
2031	6.99021e+02	2.03100e+03	0.0190345	700.0
2032	6.99025e+02	2.03200e+03	0.0190165	700.0
2033	6.99027e+02	2.03300e+03	0.0190016	700.0
2034	6.99022e+02	2.03400e+03	0.0189901	700.0
2035	6.99023e+02	2.03500e+03	0.0189819	700.0
2036	6.99021e+02	2.03600e+03	0.0189842	700.0
2037	6.99027e+02	2.03700e+03	0.0189864	700.0
2038	6.99027e+02	2.03800e+03	0.0189912	700.0
2039	6.99020e+02	2.03900e+03	0.0189967	700.0
2040	6.99021e+02	2.04000e+03	0.019009	700.0
2041	6.99017e+02	2.04100e+03	0.0190148	700.0
2042	6.99021e+02	2.04200e+03	0.0190185	700.0
2043	6.99023e+02	2.04300e+03	0.0190212	700.0
2044	6.99024e+02	2.04400e+03	0.0190187	700.0
2045	6.99026e+02	2.04500e+03	0.0190179	700.0
2046	6.99028e+02	2.04600e+03	0.019016	700.0
2047	6.99021e+02	2.04700e+03	0.0190127	700.0
2048	6.99027e+02	2.04800e+03	0.0190037	700.0
2049	6.99022e+02	2.04900e+03	0.0189935	700.0
2050	6.99022e+02	2.05000e+03	0.0189815	700.0
2051	6.99022e+02	2.05100e+03	0.0189684	700.0
2052	6.99027e+02	2.05200e+03	0.0189479	700.0
2053	6.99019e+02	2.05300e+03	0.018934	700.0
2054	6.99018e+02	2.05400e+03	0.0189258	700.0
2055	6.99015e+02	2.05500e+03	0.0189211	700.0
2056	6.99027e+02	2.05600e+03	0.0189241	700.0
2057	6.99017e+02	2.05700e+03	0.0189257	700.0
2058	6.99022e+02	2.05800e+03	0.0189278	700.0
2059	6.99022e+02	2.05900e+03	0.0189303	700.0
2060	6.99025e+02	2.06000e+03	0.0189393	700.0
2061	6.99026e+02	2.06100e+03	0.0189443	700.0
2062	6.99015e+02	2.06200e+03	0.0189506	700.0
2063	6.99012e+02	2.06300e+03	0.0189595	700.0
2064	6.99022e+02	2.06400e+03	0.018971	700.0
2065	6.99021e+02	2.06500e+03	0.0189829	700.0
2066	6.99024e+02	2.06600e+03	0.0189945	700.0
2067	6.99025e+02	2.06700e+03	0.0190058	700.0
2068	6.99025e+02	2.06800e+03	0.0190207	700.0
2069	6.99028e+02	2.06900e+03	0.0190307	700.0
2070	6.99031e+02	2.07000e+03	0.0190384	700.0
2071	6.99022e+02	2.07100e+03	0.0190451	700.0
2072	6.99025e+02	2.07200e+03	0.0190442	700.0
2073	6.99030e+02	2.07300e+03	0.0190461	700.0
2074	6.99024e+02	2.07400e+03	0.019048	700.0
2075	6.99026e+02	2.07500e+03	0.0190494	700.0
2076	6.99032e+02	2.07600e+03	0.0190473	700.0
2077	6.99032e+02	2.07700e+03	0.0190441	700.0
2078	6.99033e+02	2.07800e+03	0.0190382	700.0
2079	6.99034e+02	2.07900e+03	0.0190304	700.0
2080	6.99040e+02	2.08000e+03	0.0190187	700.0
2081	6.99025e+02	2.08100e+03	0.0190094	700.0
2082	6.99021e+02	2.08200e+03	0.018998	700.0
2083	6.99030e+02	2.08300e+03	0.018984	700.0
2084	6.99025e+02	2.08400e+03	0.0189597	700.0
2085	6.99029e+02	2.08500e+03	0.018934	700.0
2086	6.99034e+02	2.08600e+03	0.0189076	700.0
2087	6.99030e+02	2.08700e+03	0.018881	700.0
2088	6.99023e+02	2.08800e+03	0.0188469	700.0
2089	6.99030e+02	2.08900e+03	0.018822	700.0
2090	6.99022e+02	2.09000e+03	0.0188014	700.0
2091	6.99029e+02	2.09100e+03	0.018783	700.0
2092	6.99018e+02	2.09200e+03	0.0187785	700.0
2093	6.99018e+02	2.09300e+03	0.0187703	700.0
2094	6.99024e+02	2.09400e+03	0.018765	700.0
2095	6.99026e+02	2.09500e+03	0.0187633	700.0
2096	6.99021e+02	2.09600e+03	0.0187765	700.0
2097	6.99020e+02	2.09700e+03	0.0187893	700.0
2098	6.99022e+02	2.09800e+03	0.0188029	700.0
2099	6.99017e+02	2.09900e+03	0.0188164	700.0
2100	6.99024e+02	2.10000e+03	0.0188339	700.0
2101	6.99015e+02	2.10100e+03	0.0188383	700.0
2102	6.99018e+02	2.10200e+03	0.0188364	700.0
2103	6.99021e+02	2.10300e+03	0.0188321	700.0
2104	6.99023e+02	2.10400e+03	0.01881	700.0
2105	6.99023e+02	2.10500e+03	0.0187978	700.0
2106	6.99032e+02	2.10600e+03	0.0187882	700.0
2107	6.99024e+02	2.10700e+03	0.0187796	700.0
2108	6.99018e+02	2.10800e+03	0.0187762	700.0
2109	6.99014e+02	2.10900e+03	0.0187751	700.0
2110	6.99019e+02	2.11000e+03	0.0187797	700.0
2111	6.99027e+02	2.11100e+03	0.0187889	700.0
2112	6.99024e+02	2.11200e+03	0.0188147	700.0
2113	6.99021e+02	2.11300e+03	0.0188387	700.0
2114	6.99027e+02	2.11400e+03	0.0188629	700.0
2115	6.99022e+02	2.11500e+03	0.0188861	700.0
2116	6.99014e+02	2.11600e+03	0.0189124	700.0
2117	6.99008e+02	2.11700e+03	0.0189274	700.0
2118	6.99011e+02	2.11800e+03	0.0189359	700.0
2119	6.99017e+02	2.11900e+03	0.0189406	700.0
2120	6.99011e+02	2.12000e+03	0.0189218	700.0
2121	6.99014e+02	2.12100e+03	0.0189101	700.0
2122	6.99013e+02	2.12200e+03	0.0188976	700.0
2123	6.99013e+02	2.12300e+03	0.0188835	700.0
2124	6.99004e+02	2.12400e+03	0.0188605	700.0
2125	6.99005e+02	2.12500e+03	0.018842	700.0
2126	6.99014e+02	2.12600e+03	0.0188239	700.0
2127	6.99015e+02	2.12700e+03	0.0188054	700.0
2128	6.99005e+02	2.12800e+03	0.0187862	700.0
2129	6.99015e+02	2.12900e+03	0.0187675	700.0
2130	6.99012e+02	2.13000e+03	0.0187522	700.0
2131	6.99014e+02	2.13100e+03	0.0187398	700.0
2132	6.99013e+02	2.13200e+03	0.0187296	700.0
2133	6.99009e+02	2.13300e+03	0.0187173	700.0
2134	6.99012e+02	2.13400e+03	0.0187007	700.0
2135	6.99006e+02	2.13500e+03	0.0186811	700.0
2136	6.99000e+02	2.13600e+03	0.0186628	700.0
2137	6.99006e+02	2.13700e+03	0.0186453	700.0
2138	6.99008e+02	2.13800e+03	0.0186324	700.0
2139	6.99009e+02	2.13900e+03	0.0186237	700.0
2140	6.99003e+02	2.14000e+03	0.0186225	700.0
2141	6.99004e+02	2.14100e+03	0.0186277	700.0
2142	6.99016e+02	2.14200e+03	0.0186376	700.0
2143	6.99010e+02	2.14300e+03	0.0186488	700.0
2144	6.98999e+02	2.14400e+03	0.0186749	700.0
2145	6.99013e+02	2.14500e+03	0.0186887	700.0
2146	6.99004e+02	2.14600e+03	0.018698	700.0
2147	6.99006e+02	2.14700e+03	0.0187052	700.0
2148	6.99003e+02	2.14800e+03	0.0187009	700.0
2149	6.99009e+02	2.14900e+03	0.0187005	700.0
2150	6.99006e+02	2.15000e+03	0.0187003	700.0
2151	6.99006e+02	2.15100e+03	0.0186999	700.0
2152	6.99006e+02	2.15200e+03	0.0186989	700.0
2153	6.99004e+02	2.15300e+03	0.0187046	700.0
2154	6.99011e+02	2.15400e+03	0.018716	700.0
2155	6.99003e+02	2.15500e+03	0.0187301	700.0
2156	6.99002e+02	2.15600e+03	0.0187551	700.0
2157	6.98999e+02	2.15700e+03	0.0187756	700.0
2158	6.99000e+02	2.15800e+03	0.0187962	700.0
2159	6.99007e+02	2.15900e+03	0.0188175	700.0
2160	6.99009e+02	2.16000e+03	0.0188431	700.0
2161	6.99002e+02	2.16100e+03	0.0188664	700.0
2162	6.98998e+02	2.16200e+03	0.0188883	700.0
2163	6.98999e+02	2.16300e+03	0.0189094	700.0
2164	6.98997e+02	2.16400e+03	0.0189262	700.0
2165	6.99004e+02	2.16500e+03	0.0189408	700.0
2166	6.98997e+02	2.16600e+03	0.018953	700.0
2167	6.98996e+02	2.16700e+03	0.0189633	700.0
2168	6.98995e+02	2.16800e+03	0.0189618	700.0
2169	6.98997e+02	2.16900e+03	0.0189622	700.0
2170	6.98992e+02	2.17000e+03	0.0189608	700.0
2171	6.98989e+02	2.17100e+03	0.0189577	700.0
2172	6.98995e+02	2.17200e+03	0.0189452	700.0
2173	6.98995e+02	2.17300e+03	0.0189354	700.0
2174	6.98988e+02	2.17400e+03	0.0189255	700.0
2175	6.98985e+02	2.17500e+03	0.018915	700.0
2176	6.98991e+02	2.17600e+03	0.0188998	700.0
2177	6.98992e+02	2.17700e+03	0.0188851	700.0
2178	6.98991e+02	2.17800e+03	0.0188706	700.0
2179	6.98987e+02	2.17900e+03	0.0188569	700.0
2180	6.98993e+02	2.18000e+03	0.0188439	700.0
2181	6.98988e+02	2.18100e+03	0.0188331	700.0
2182	6.98994e+02	2.18200e+03	0.0188224	700.0
2183	6.98985e+02	2.18300e+03	0.018811	700.0
2184	6.98986e+02	2.18400e+03	0.0188028	700.0
2185	6.98977e+02	2.18500e+03	0.0187911	700.0
2186	6.98981e+02	2.18600e+03	0.0187752	700.0
2187	6.98977e+02	2.18700e+03	0.0187561	700.0
2188	6.98982e+02	2.18800e+03	0.0187339	700.0
2189	6.98986e+02	2.18900e+03	0.0187163	700.0
2190	6.98976e+02	2.19000e+03	0.018702	700.0
2191	6.98977e+02	2.19100e+03	0.0186898	700.0
2192	6.98980e+02	2.19200e+03	0.0186852	700.0
2193	6.98985e+02	2.19300e+03	0.0186823	700.0
2194	6.98973e+02	2.19400e+03	0.0186819	700.0
2195	6.98975e+02	2.19500e+03	0.018683	700.0
2196	6.98981e+02	2.19600e+03	0.0186943	700.0
2197	6.98973e+02	2.19700e+03	0.018699	700.0
2198	6.98977e+02	2.19800e+03	0.0187018	700.0
2199	6.98970e+02	2.19900e+03	0.0187038	700.0
2200	6.98971e+02	2.20000e+03	0.0187003	700.0
2201	6.98970e+02	2.20100e+03	0.018697	700.0
2202	6.98961e+02	2.20200e+03	0.0186928	700.0
2203	6.98971e+02	2.20300e+03	0.018688	700.0
2204	6.98962e+02	2.20400e+03	0.0186853	700.0
2205	6.98964e+02	2.20500e+03	0.018689	700.0
2206	6.98973e+02	2.20600e+03	0.0186953	700.0
2207	6.98967e+02	2.20700e+03	0.0187025	700.0
2208	6.98965e+02	2.20800e+03	0.0187217	700.0
2209	6.98964e+02	2.20900e+03	0.018735	700.0
2210	6.98967e+02	2.21000e+03	0.0187485	700.0
2211	6.98968e+02	2.21100e+03	0.0187642	700.0
2212	6.98969e+02	2.21200e+03	0.0187847	700.0
2213	6.98963e+02	2.21300e+03	0.018803	700.0
2214	6.98957e+02	2.21400e+03	0.0188184	700.0
2215	6.98957e+02	2.21500e+03	0.0188317	700.0
2216	6.98962e+02	2.21600e+03	0.01884	700.0
2217	6.98963e+02	2.21700e+03	0.0188426	700.0
2218	6.98961e+02	2.21800e+03	0.0188411	700.0
2219	6.98957e+02	2.21900e+03	0.0188372	700.0
2220	6.98953e+02	2.22000e+03	0.0188179	700.0
2221	6.98951e+02	2.22100e+03	0.0188112	700.0
2222	6.98959e+02	2.22200e+03	0.01881	700.0
2223	6.98954e+02	2.22300e+03	0.0188105	700.0
2224	6.98956e+02	2.22400e+03	0.0188174	700.0
2225	6.98951e+02	2.22500e+03	0.0188187	700.0
2226	6.98957e+02	2.22600e+03	0.0188154	700.0
2227	6.98958e+02	2.22700e+03	0.0188099	700.0
2228	6.98949e+02	2.22800e+03	0.0188013	700.0
2229	6.98950e+02	2.22900e+03	0.0187919	700.0
2230	6.98960e+02	2.23000e+03	0.018781	700.0
2231	6.98946e+02	2.23100e+03	0.0187692	700.0
2232	6.98949e+02	2.23200e+03	0.0187484	700.0
2233	6.98952e+02	2.23300e+03	0.0187302	700.0
2234	6.98948e+02	2.23400e+03	0.0187114	700.0
2235	6.98945e+02	2.23500e+03	0.0186916	700.0
2236	6.98948e+02	2.23600e+03	0.0186665	700.0
2237	6.98955e+02	2.23700e+03	0.0186421	700.0
2238	6.98938e+02	2.23800e+03	0.018619	700.0
2239	6.98939e+02	2.23900e+03	0.0185979	700.0
2240	6.98936e+02	2.24000e+03	0.0185787	700.0
2241	6.98942e+02	2.24100e+03	0.0185611	700.0
2242	6.98944e+02	2.24200e+03	0.0185443	700.0
2243	6.98943e+02	2.24300e+03	0.018528	700.0
2244	6.98934e+02	2.24400e+03	0.0185203	700.0
2245	6.98939e+02	2.24500e+03	0.0185092	700.0
2246	6.98939e+02	2.24600e+03	0.0184981	700.0
2247	6.98945e+02	2.24700e+03	0.0184876	700.0
2248	6.98937e+02	2.24800e+03	0.0184802	700.0
2249	6.98934e+02	2.24900e+03	0.0184743	700.0
2250	6.98947e+02	2.25000e+03	0.0184703	700.0
2251	6.98934e+02	2.25100e+03	0.0184678	700.0
2252	6.98939e+02	2.25200e+03	0.0184733	700.0
2253	6.98934e+02	2.25300e+03	0.018477	700.0
2254	6.98932e+02	2.25400e+03	0.0184808	700.0
2255	6.98930e+02	2.25500e+03	0.0184847	700.0
2256	6.98927e+02	2.25600e+03	0.0184916	700.0
2257	6.98937e+02	2.25700e+03	0.0184987	700.0
2258	6.98930e+02	2.25800e+03	0.0185082	700.0
2259	6.98933e+02	2.25900e+03	0.0185184	700.0
2260	6.98934e+02	2.26000e+03	0.0185283	700.0
2261	6.98931e+02	2.26100e+03	0.018541	700.0
2262	6.98927e+02	2.26200e+03	0.0185564	700.0
2263	6.98936e+02	2.26300e+03	0.0185722	700.0
2264	6.98931e+02	2.26400e+03	0.0185956	700.0
2265	6.98931e+02	2.26500e+03	0.0186192	700.0
2266	6.98930e+02	2.26600e+03	0.0186422	700.0
2267	6.98924e+02	2.26700e+03	0.0186642	700.0
2268	6.98927e+02	2.26800e+03	0.0186878	700.0
2269	6.98937e+02	2.26900e+03	0.0187059	700.0
2270	6.98928e+02	2.27000e+03	0.0187207	700.0
2271	6.98928e+02	2.27100e+03	0.0187336	700.0
2272	6.98924e+02	2.27200e+03	0.0187351	700.0
2273	6.98926e+02	2.27300e+03	0.0187401	700.0
2274	6.98925e+02	2.27400e+03	0.0187447	700.0
2275	6.98916e+02	2.27500e+03	0.0187483	700.0
2276	6.98915e+02	2.27600e+03	0.0187465	700.0
2277	6.98919e+02	2.27700e+03	0.0187457	700.0
2278	6.98920e+02	2.27800e+03	0.0187439	700.0
2279	6.98913e+02	2.27900e+03	0.018741	700.0
2280	6.98916e+02	2.28000e+03	0.0187331	700.0
2281	6.98924e+02	2.28100e+03	0.0187257	700.0
2282	6.98917e+02	2.28200e+03	0.0187175	700.0
2283	6.98922e+02	2.28300e+03	0.0187083	700.0
2284	6.98916e+02	2.28400e+03	0.0186889	700.0
2285	6.98912e+02	2.28500e+03	0.0186682	700.0
2286	6.98909e+02	2.28600e+03	0.0186431	700.0
2287	6.98908e+02	2.28700e+03	0.0186147	700.0
2288	6.98917e+02	2.28800e+03	0.0185764	700.0
2289	6.98912e+02	2.28900e+03	0.018545	700.0
2290	6.98916e+02	2.29000e+03	0.018516	700.0
2291	6.98905e+02	2.29100e+03	0.0184884	700.0
2292	6.98915e+02	2.29200e+03	0.0184645	700.0
2293	6.98913e+02	2.29300e+03	0.0184421	700.0
2294	6.98905e+02	2.29400e+03	0.018422	700.0
2295	6.98903e+02	2.29500e+03	0.0184033	700.0
2296	6.98915e+02	2.29600e+03	0.0183992	700.0
2297	6.98911e+02	2.29700e+03	0.0183979	700.0
2298	6.98911e+02	2.29800e+03	0.0184037	700.0
2299	6.98908e+02	2.29900e+03	0.0184144	700.0
2300	6.98910e+02	2.30000e+03	0.0184429	700.0
2301	6.98911e+02	2.30100e+03	0.0184626	700.0
2302	6.98909e+02	2.30200e+03	0.0184801	700.0
2303	6.98909e+02	2.30300e+03	0.0184968	700.0
2304	6.98908e+02	2.30400e+03	0.0185187	700.0
2305	6.98913e+02	2.30500e+03	0.0185401	700.0
2306	6.98907e+02	2.30600e+03	0.0185607	700.0
2307	6.98904e+02	2.30700e+03	0.0185803	700.0
2308	6.98909e+02	2.30800e+03	0.018598	700.0
2309	6.98908e+02	2.30900e+03	0.0186147	700.0
2310	6.98908e+02	2.31000e+03	0.0186299	700.0
2311	6.98904e+02	2.31100e+03	0.018644	700.0
2312	6.98901e+02	2.31200e+03	0.0186517	700.0
2313	6.98906e+02	2.31300e+03	0.0186592	700.0
2314	6.98898e+02	2.31400e+03	0.0186643	700.0
2315	6.98902e+02	2.31500e+03	0.0186675	700.0
2316	6.98903e+02	2.31600e+03	0.0186596	700.0
2317	6.98907e+02	2.31700e+03	0.0186526	700.0
2318	6.98898e+02	2.31800e+03	0.0186437	700.0
2319	6.98894e+02	2.31900e+03	0.0186333	700.0
2320	6.98897e+02	2.32000e+03	0.0186129	700.0
2321	6.98895e+02	2.32100e+03	0.0185969	700.0
2322	6.98896e+02	2.32200e+03	0.0185812	700.0
2323	6.98892e+02	2.32300e+03	0.0185652	700.0
2324	6.98883e+02	2.32400e+03	0.0185475	700.0
2325	6.98891e+02	2.32500e+03	0.0185272	700.0
2326	6.98888e+02	2.32600e+03	0.0185038	700.0
2327	6.98882e+02	2.32700e+03	0.0184792	700.0
2328	6.98884e+02	2.32800e+03	0.0184536	700.0
2329	6.98895e+02	2.32900e+03	0.0184316	700.0
2330	6.98894e+02	2.33000e+03	0.0184135	700.0
2331	6.98889e+02	2.33100e+03	0.0183999	700.0
2332	6.98887e+02	2.33200e+03	0.0184011	700.0
2333	6.98892e+02	2.33300e+03	0.0184016	700.0
2334	6.98894e+02	2.33400e+03	0.0184033	700.0
2335	6.98892e+02	2.33500e+03	0.0184058	700.0
2336	6.98877e+02	2.33600e+03	0.0184209	700.0
2337	6.98886e+02	2.33700e+03	0.0184267	700.0
2338	6.98884e+02	2.33800e+03	0.0184329	700.0
2339	6.98889e+02	2.33900e+03	0.0184409	700.0
2340	6.98883e+02	2.34000e+03	0.0184428	700.0
2341	6.98886e+02	2.34100e+03	0.018447	700.0
2342	6.98876e+02	2.34200e+03	0.0184507	700.0
2343	6.98887e+02	2.34300e+03	0.018454	700.0
2344	6.98881e+02	2.34400e+03	0.0184592	700.0
2345	6.98876e+02	2.34500e+03	0.0184638	700.0
2346	6.98878e+02	2.34600e+03	0.0184689	700.0
2347	6.98889e+02	2.34700e+03	0.0184749	700.0
2348	6.98890e+02	2.34800e+03	0.0184895	700.0
2349	6.98883e+02	2.34900e+03	0.0185073	700.0
2350	6.98880e+02	2.35000e+03	0.0185261	700.0
2351	6.98883e+02	2.35100e+03	0.0185453	700.0
2352	6.98882e+02	2.35200e+03	0.0185725	700.0
2353	6.98876e+02	2.35300e+03	0.0185898	700.0
2354	6.98886e+02	2.35400e+03	0.0186019	700.0
2355	6.98884e+02	2.35500e+03	0.0186109	700.0
2356	6.98880e+02	2.35600e+03	0.0186022	700.0
2357	6.98873e+02	2.35700e+03	0.0185962	700.0
2358	6.98874e+02	2.35800e+03	0.0185878	700.0
2359	6.98880e+02	2.35900e+03	0.0185774	700.0
2360	6.98869e+02	2.36000e+03	0.018552	700.0
2361	6.98871e+02	2.36100e+03	0.0185283	700.0
2362	6.98876e+02	2.36200e+03	0.0185019	700.0
2363	6.98879e+02	2.36300e+03	0.0184744	700.0
2364	6.98876e+02	2.36400e+03	0.0184414	700.0
2365	6.98875e+02	2.36500e+03	0.0184145	700.0
2366	6.98873e+02	2.36600e+03	0.0183942	700.0
2367	6.98872e+02	2.36700e+03	0.0183789	700.0
2368	6.98873e+02	2.36800e+03	0.0183759	700.0
2369	6.98874e+02	2.36900e+03	0.0183733	700.0
2370	6.98866e+02	2.37000e+03	0.0183742	700.0
2371	6.98864e+02	2.37100e+03	0.0183776	700.0
2372	6.98868e+02	2.37200e+03	0.0184002	700.0
2373	6.98869e+02	2.37300e+03	0.018416	700.0
2374	6.98863e+02	2.37400e+03	0.0184317	700.0
2375	6.98870e+02	2.37500e+03	0.018448	700.0
2376	6.98878e+02	2.37600e+03	0.0184661	700.0
2377	6.98869e+02	2.37700e+03	0.0184793	700.0
2378	6.98875e+02	2.37800e+03	0.0184886	700.0
2379	6.98869e+02	2.37900e+03	0.0184953	700.0
2380	6.98869e+02	2.38000e+03	0.01849	700.0
2381	6.98864e+02	2.38100e+03	0.0184885	700.0
2382	6.98867e+02	2.38200e+03	0.0184864	700.0
2383	6.98869e+02	2.38300e+03	0.0184823	700.0
2384	6.98874e+02	2.38400e+03	0.0184672	700.0
2385	6.98868e+02	2.38500e+03	0.0184548	700.0
2386	6.98869e+02	2.38600e+03	0.018442	700.0
2387	6.98875e+02	2.38700e+03	0.0184283	700.0
2388	6.98867e+02	2.38800e+03	0.0184121	700.0
2389	6.98868e+02	2.38900e+03	0.0183992	700.0
2390	6.98870e+02	2.39000e+03	0.0183879	700.0
2391	6.98876e+02	2.39100e+03	0.0183774	700.0
2392	6.98869e+02	2.39200e+03	0.0183719	700.0
2393	6.98871e+02	2.39300e+03	0.0183632	700.0
2394	6.98870e+02	2.39400e+03	0.0183508	700.0
2395	6.98871e+02	2.39500e+03	0.0183365	700.0
2396	6.98865e+02	2.39600e+03	0.0183218	700.0
2397	6.98873e+02	2.39700e+03	0.018308	700.0
2398	6.98871e+02	2.39800e+03	0.0182971	700.0
2399	6.98868e+02	2.39900e+03	0.0182894	700.0
2400	6.98866e+02	2.40000e+03	0.0182852	700.0
2401	6.98866e+02	2.40100e+03	0.0182814	700.0
2402	6.98874e+02	2.40200e+03	0.0182773	700.0
2403	6.98864e+02	2.40300e+03	0.0182727	700.0
2404	6.98859e+02	2.40400e+03	0.0182717	700.0
2405	6.98867e+02	2.40500e+03	0.0182642	700.0
2406	6.98864e+02	2.40600e+03	0.0182533	700.0
2407	6.98873e+02	2.40700e+03	0.0182407	700.0
2408	6.98859e+02	2.40800e+03	0.0182179	700.0
2409	6.98864e+02	2.40900e+03	0.0182006	700.0
2410	6.98864e+02	2.41000e+03	0.0181856	700.0
2411	6.98868e+02	2.41100e+03	0.018172	700.0
2412	6.98872e+02	2.41200e+03	0.0181662	700.0
2413	6.98859e+02	2.41300e+03	0.0181646	700.0
2414	6.98859e+02	2.41400e+03	0.0181678	700.0
2415	6.98868e+02	2.41500e+03	0.0181743	700.0
2416	6.98856e+02	2.41600e+03	0.0182015	700.0
2417	6.98859e+02	2.41700e+03	0.0182233	700.0
2418	6.98861e+02	2.41800e+03	0.0182461	700.0
2419	6.98863e+02	2.41900e+03	0.0182701	700.0
2420	6.98862e+02	2.42000e+03	0.0183014	700.0
2421	6.98857e+02	2.42100e+03	0.0183258	700.0
2422	6.98849e+02	2.42200e+03	0.0183461	700.0
2423	6.98864e+02	2.42300e+03	0.0183638	700.0
2424	6.98865e+02	2.42400e+03	0.0183679	700.0
2425	6.98858e+02	2.42500e+03	0.0183711	700.0
2426	6.98863e+02	2.42600e+03	0.0183707	700.0
2427	6.98862e+02	2.42700e+03	0.0183677	700.0
2428	6.98863e+02	2.42800e+03	0.0183493	700.0
2429	6.98857e+02	2.42900e+03	0.0183387	700.0
2430	6.98856e+02	2.43000e+03	0.01833	700.0
2431	6.98858e+02	2.43100e+03	0.018322	700.0
2432	6.98864e+02	2.43200e+03	0.0183194	700.0
2433	6.98858e+02	2.43300e+03	0.0183195	700.0
2434	6.98854e+02	2.43400e+03	0.0183224	700.0
2435	6.98847e+02	2.43500e+03	0.0183269	700.0
2436	6.98857e+02	2.43600e+03	0.0183393	700.0
2437	6.98856e+02	2.43700e+03	0.0183436	700.0
2438	6.98848e+02	2.43800e+03	0.0183432	700.0
2439	6.98850e+02	2.43900e+03	0.0183406	700.0
2440	6.98857e+02	2.44000e+03	0.0183274	700.0
2441	6.98857e+02	2.44100e+03	0.0183152	700.0
2442	6.98862e+02	2.44200e+03	0.0183009	700.0
2443	6.98852e+02	2.44300e+03	0.0182853	700.0
2444	6.98853e+02	2.44400e+03	0.018266	700.0
2445	6.98853e+02	2.44500e+03	0.0182549	700.0
2446	6.98854e+02	2.44600e+03	0.0182496	700.0
2447	6.98851e+02	2.44700e+03	0.0182485	700.0
2448	6.98858e+02	2.44800e+03	0.0182741	700.0
2449	6.98856e+02	2.44900e+03	0.0182993	700.0
2450	6.98858e+02	2.45000e+03	0.0183271	700.0
2451	6.98849e+02	2.45100e+03	0.0183569	700.0
2452	6.98851e+02	2.45200e+03	0.0184058	700.0
2453	6.98852e+02	2.45300e+03	0.018439	700.0
2454	6.98858e+02	2.45400e+03	0.0184664	700.0
2455	6.98856e+02	2.45500e+03	0.018491	700.0
2456	6.98848e+02	2.45600e+03	0.0184974	700.0
2457	6.98854e+02	2.45700e+03	0.0185071	700.0
2458	6.98857e+02	2.45800e+03	0.0185137	700.0
2459	6.98845e+02	2.45900e+03	0.018516	700.0
2460	6.98841e+02	2.46000e+03	0.0184992	700.0
2461	6.98853e+02	2.46100e+03	0.0184877	700.0
2462	6.98854e+02	2.46200e+03	0.0184768	700.0
2463	6.98843e+02	2.46300e+03	0.0184656	700.0
2464	6.98847e+02	2.46400e+03	0.0184477	700.0
2465	6.98843e+02	2.46500e+03	0.0184397	700.0
2466	6.98843e+02	2.46600e+03	0.0184361	700.0
2467	6.98842e+02	2.46700e+03	0.0184332	700.0
2468	6.98846e+02	2.46800e+03	0.0184365	700.0
2469	6.98843e+02	2.46900e+03	0.018433	700.0
2470	6.98845e+02	2.47000e+03	0.0184271	700.0
2471	6.98845e+02	2.47100e+03	0.01842	700.0
2472	6.98849e+02	2.47200e+03	0.0184073	700.0
2473	6.98850e+02	2.47300e+03	0.0183978	700.0
2474	6.98840e+02	2.47400e+03	0.0183891	700.0
2475	6.98842e+02	2.47500e+03	0.0183806	700.0
2476	6.98843e+02	2.47600e+03	0.0183739	700.0
2477	6.98835e+02	2.47700e+03	0.0183679	700.0
2478	6.98842e+02	2.47800e+03	0.0183613	700.0
2479	6.98836e+02	2.47900e+03	0.0183525	700.0
2480	6.98830e+02	2.48000e+03	0.0183399	700.0
2481	6.98841e+02	2.48100e+03	0.0183277	700.0
2482	6.98849e+02	2.48200e+03	0.0183198	700.0
2483	6.98839e+02	2.48300e+03	0.0183155	700.0
2484	6.98836e+02	2.48400e+03	0.0183126	700.0
2485	6.98843e+02	2.48500e+03	0.0183191	700.0
2486	6.98842e+02	2.48600e+03	0.0183321	700.0
2487	6.98837e+02	2.48700e+03	0.0183475	700.0
2488	6.98836e+02	2.48800e+03	0.0183861	700.0
2489	6.98844e+02	2.48900e+03	0.0184178	700.0
2490	6.98845e+02	2.49000e+03	0.0184483	700.0
2491	6.98844e+02	2.49100e+03	0.018478	700.0
2492	6.98837e+02	2.49200e+03	0.0185082	700.0
2493	6.98841e+02	2.49300e+03	0.0185307	700.0
2494	6.98840e+02	2.49400e+03	0.0185452	700.0
2495	6.98837e+02	2.49500e+03	0.0185536	700.0
2496	6.98844e+02	2.49600e+03	0.0185381	700.0
2497	6.98843e+02	2.49700e+03	0.0185265	700.0
2498	6.98845e+02	2.49800e+03	0.018512	700.0
2499	6.98845e+02	2.49900e+03	0.0184949	700.0
2500	6.98829e+02	2.50000e+03	0.0184653	700.0
2501	6.98835e+02	2.50100e+03	0.018448	700.0
2502	6.98836e+02	2.50200e+03	0.0184329	700.0
2503	6.98835e+02	2.50300e+03	0.0184179	700.0
2504	6.98838e+02	2.50400e+03	0.0184105	700.0
2505	6.98842e+02	2.50500e+03	0.0183969	700.0
2506	6.98841e+02	2.50600e+03	0.0183821	700.0
2507	6.98831e+02	2.50700e+03	0.0183686	700.0
2508	6.98825e+02	2.50800e+03	0.0183561	700.0
2509	6.98833e+02	2.50900e+03	0.0183457	700.0
2510	6.98848e+02	2.51000e+03	0.0183365	700.0
2511	6.98833e+02	2.51100e+03	0.0183281	700.0
2512	6.98839e+02	2.51200e+03	0.018327	700.0
2513	6.98839e+02	2.51300e+03	0.0183209	700.0
2514	6.98837e+02	2.51400e+03	0.0183159	700.0
2515	6.98840e+02	2.51500e+03	0.0183148	700.0
2516	6.98835e+02	2.51600e+03	0.0183279	700.0
2517	6.98836e+02	2.51700e+03	0.018345	700.0
2518	6.98838e+02	2.51800e+03	0.0183663	700.0
2519	6.98839e+02	2.51900e+03	0.0183903	700.0
2520	6.98832e+02	2.52000e+03	0.0184352	700.0
2521	6.98829e+02	2.52100e+03	0.0184669	700.0
2522	6.98843e+02	2.52200e+03	0.0184939	700.0
2523	6.98827e+02	2.52300e+03	0.0185187	700.0
2524	6.98840e+02	2.52400e+03	0.0185304	700.0
2525	6.98838e+02	2.52500e+03	0.01854	700.0
2526	6.98839e+02	2.52600e+03	0.0185426	700.0
2527	6.98834e+02	2.52700e+03	0.0185391	700.0
2528	6.98841e+02	2.52800e+03	0.0185108	700.0
2529	6.98841e+02	2.52900e+03	0.0184892	700.0
2530	6.98841e+02	2.53000e+03	0.0184676	700.0
2531	6.98838e+02	2.53100e+03	0.0184461	700.0
2532	6.98845e+02	2.53200e+03	0.0184188	700.0
2533	6.98843e+02	2.53300e+03	0.0184	700.0
2534	6.98838e+02	2.53400e+03	0.0183833	700.0
2535	6.98840e+02	2.53500e+03	0.0183669	700.0
2536	6.98842e+02	2.53600e+03	0.0183612	700.0
2537	6.98831e+02	2.53700e+03	0.0183486	700.0
2538	6.98840e+02	2.53800e+03	0.0183348	700.0
2539	6.98839e+02	2.53900e+03	0.018321	700.0
2540	6.98832e+02	2.54000e+03	0.0183056	700.0
2541	6.98836e+02	2.54100e+03	0.0182935	700.0
2542	6.98839e+02	2.54200e+03	0.0182836	700.0
2543	6.98831e+02	2.54300e+03	0.0182752	700.0
2544	6.98836e+02	2.54400e+03	0.018271	700.0
2545	6.98836e+02	2.54500e+03	0.0182633	700.0
2546	6.98834e+02	2.54600e+03	0.0182561	700.0
2547	6.98827e+02	2.54700e+03	0.0182502	700.0
2548	6.98830e+02	2.54800e+03	0.0182475	700.0
2549	6.98843e+02	2.54900e+03	0.0182455	700.0
2550	6.98832e+02	2.55000e+03	0.0182437	700.0
2551	6.98831e+02	2.55100e+03	0.0182421	700.0
2552	6.98829e+02	2.55200e+03	0.0182412	700.0
2553	6.98826e+02	2.55300e+03	0.0182363	700.0
2554	6.98827e+02	2.55400e+03	0.0182296	700.0
2555	6.98830e+02	2.55500e+03	0.0182219	700.0
2556	6.98835e+02	2.55600e+03	0.0182121	700.0
2557	6.98831e+02	2.55700e+03	0.0182086	700.0
2558	6.98837e+02	2.55800e+03	0.0182069	700.0
2559	6.98825e+02	2.55900e+03	0.0182051	700.0
2560	6.98828e+02	2.56000e+03	0.0182088	700.0
2561	6.98824e+02	2.56100e+03	0.0182055	700.0
2562	6.98836e+02	2.56200e+03	0.0181973	700.0
2563	6.98830e+02	2.56300e+03	0.018187	700.0
2564	6.98825e+02	2.56400e+03	0.0181724	700.0
2565	6.98827e+02	2.56500e+03	0.0181624	700.0
2566	6.98824e+02	2.56600e+03	0.0181547	700.0
2567	6.98825e+02	2.56700e+03	0.0181484	700.0
2568	6.98825e+02	2.56800e+03	0.0181481	700.0
2569	6.98829e+02	2.56900e+03	0.0181484	700.0
2570	6.98832e+02	2.57000e+03	0.0181484	700.0
2571	6.98824e+02	2.57100e+03	0.0181469	700.0
2572	6.98827e+02	2.57200e+03	0.0181485	700.0
2573	6.98823e+02	2.57300e+03	0.0181475	700.0
2574	6.98822e+02	2.57400e+03	0.0181465	700.0
2575	6.98817e+02	2.57500e+03	0.0181458	700.0
2576	6.98821e+02	2.57600e+03	0.0181412	700.0
2577	6.98822e+02	2.57700e+03	0.0181398	700.0
2578	6.98826e+02	2.57800e+03	0.0181399	700.0
2579	6.98811e+02	2.57900e+03	0.0181416	700.0
2580	6.98817e+02	2.58000e+03	0.0181518	700.0
2581	6.98819e+02	2.58100e+03	0.0181625	700.0
2582	6.98815e+02	2.58200e+03	0.0181753	700.0
2583	6.98820e+02	2.58300e+03	0.018189	700.0
2584	6.98820e+02	2.58400e+03	0.0182047	700.0
2585	6.98818e+02	2.58500e+03	0.0182129	700.0
2586	6.98821e+02	2.58600e+03	0.0182172	700.0
2587	6.98823e+02	2.58700e+03	0.0182195	700.0
2588	6.98827e+02	2.58800e+03	0.0182114	700.0
2589	6.98823e+02	2.58900e+03	0.0182089	700.0
2590	6.98828e+02	2.59000e+03	0.0182075	700.0
2591	6.98820e+02	2.59100e+03	0.0182065	700.0
2592	6.98815e+02	2.59200e+03	0.018208	700.0
2593	6.98814e+02	2.59300e+03	0.0182105	700.0
2594	6.98821e+02	2.59400e+03	0.0182137	700.0
2595	6.98812e+02	2.59500e+03	0.0182174	700.0
2596	6.98819e+02	2.59600e+03	0.0182193	700.0
2597	6.98814e+02	2.59700e+03	0.0182133	700.0
2598	6.98813e+02	2.59800e+03	0.0182018	700.0
2599	6.98809e+02	2.59900e+03	0.018188	700.0
2600	6.98818e+02	2.60000e+03	0.0181588	700.0
2601	6.98817e+02	2.60100e+03	0.0181357	700.0
2602	6.98812e+02	2.60200e+03	0.018114	700.0
2603	6.98814e+02	2.60300e+03	0.0180928	700.0
2604	6.98813e+02	2.60400e+03	0.0180722	700.0
2605	6.98813e+02	2.60500e+03	0.0180565	700.0
2606	6.98813e+02	2.60600e+03	0.018044	700.0
2607	6.98809e+02	2.60700e+03	0.0180335	700.0
2608	6.98813e+02	2.60800e+03	0.0180358	700.0
2609	6.98816e+02	2.60900e+03	0.0180343	700.0
2610	6.98811e+02	2.61000e+03	0.0180334	700.0
2611	6.98812e+02	2.61100e+03	0.0180334	700.0
2612	6.98814e+02	2.61200e+03	0.0180382	700.0
2613	6.98808e+02	2.61300e+03	0.0180405	700.0
2614	6.98819e+02	2.61400e+03	0.0180424	700.0
2615	6.98812e+02	2.61500e+03	0.0180442	700.0
2616	6.98813e+02	2.61600e+03	0.0180502	700.0
2617	6.98823e+02	2.61700e+03	0.0180598	700.0
2618	6.98816e+02	2.61800e+03	0.0180713	700.0
2619	6.98811e+02	2.61900e+03	0.0180831	700.0
2620	6.98819e+02	2.62000e+03	0.0181004	700.0
2621	6.98817e+02	2.62100e+03	0.0181122	700.0
2622	6.98812e+02	2.62200e+03	0.0181211	700.0
2623	6.98811e+02	2.62300e+03	0.0181284	700.0
2624	6.98817e+02	2.62400e+03	0.0181272	700.0
2625	6.98812e+02	2.62500e+03	0.0181267	700.0
2626	6.98807e+02	2.62600e+03	0.018125	700.0
2627	6.98811e+02	2.62700e+03	0.0181224	700.0
2628	6.98814e+02	2.62800e+03	0.0181146	700.0
2629	6.98812e+02	2.62900e+03	0.0181119	700.0
2630	6.98807e+02	2.63000e+03	0.0181119	700.0
2631	6.98811e+02	2.63100e+03	0.0181134	700.0
2632	6.98813e+02	2.63200e+03	0.0181232	700.0
2633	6.98812e+02	2.63300e+03	0.0181343	700.0
2634	6.98808e+02	2.63400e+03	0.01815	700.0
2635	6.98812e+02	2.63500e+03	0.0181683	700.0
2636	6.98820e+02	2.63600e+03	0.0181938	700.0
2637	6.98810e+02	2.63700e+03	0.0182132	700.0
2638	6.98814e+02	2.63800e+03	0.0182304	700.0
2639	6.98813e+02	2.63900e+03	0.0182465	700.0
2640	6.98816e+02	2.64000e+03	0.0182566	700.0
2641	6.98807e+02	2.64100e+03	0.0182654	700.0
2642	6.98816e+02	2.64200e+03	0.0182711	700.0
2643	6.98811e+02	2.64300e+03	0.0182743	700.0
2644	6.98820e+02	2.64400e+03	0.0182629	700.0
2645	6.98818e+02	2.64500e+03	0.0182519	700.0
2646	6.98816e+02	2.64600e+03	0.0182374	700.0
2647	6.98819e+02	2.64700e+03	0.0182201	700.0
2648	6.98823e+02	2.64800e+03	0.0181872	700.0
2649	6.98820e+02	2.64900e+03	0.0181605	700.0
2650	6.98807e+02	2.65000e+03	0.0181375	700.0
2651	6.98812e+02	2.65100e+03	0.0181176	700.0
2652	6.98821e+02	2.65200e+03	0.0181049	700.0
2653	6.98809e+02	2.65300e+03	0.0180963	700.0
2654	6.98815e+02	2.65400e+03	0.018089	700.0
2655	6.98815e+02	2.65500e+03	0.0180813	700.0
2656	6.98814e+02	2.65600e+03	0.0180912	700.0
2657	6.98813e+02	2.65700e+03	0.0180941	700.0
2658	6.98815e+02	2.65800e+03	0.0180979	700.0
2659	6.98815e+02	2.65900e+03	0.0181042	700.0
2660	6.98819e+02	2.66000e+03	0.0181181	700.0
2661	6.98811e+02	2.66100e+03	0.0181339	700.0
2662	6.98809e+02	2.66200e+03	0.0181503	700.0
2663	6.98818e+02	2.66300e+03	0.0181667	700.0
2664	6.98816e+02	2.66400e+03	0.0181898	700.0
2665	6.98809e+02	2.66500e+03	0.0182033	700.0
2666	6.98818e+02	2.66600e+03	0.0182116	700.0
2667	6.98810e+02	2.66700e+03	0.0182168	700.0
2668	6.98817e+02	2.66800e+03	0.0182048	700.0
2669	6.98809e+02	2.66900e+03	0.018197	700.0
2670	6.98813e+02	2.67000e+03	0.0181886	700.0
2671	6.98823e+02	2.67100e+03	0.0181792	700.0
2672	6.98810e+02	2.67200e+03	0.0181635	700.0
2673	6.98809e+02	2.67300e+03	0.0181538	700.0
2674	6.98818e+02	2.67400e+03	0.0181465	700.0
2675	6.98806e+02	2.67500e+03	0.0181403	700.0
2676	6.98812e+02	2.67600e+03	0.0181424	700.0
2677	6.98805e+02	2.67700e+03	0.0181413	700.0
2678	6.98804e+02	2.67800e+03	0.0181385	700.0
2679	6.98809e+02	2.67900e+03	0.0181353	700.0
2680	6.98810e+02	2.68000e+03	0.0181388	700.0
2681	6.98806e+02	2.68100e+03	0.0181425	700.0
2682	6.98811e+02	2.68200e+03	0.0181484	700.0
2683	6.98811e+02	2.68300e+03	0.0181572	700.0
2684	6.98815e+02	2.68400e+03	0.0181766	700.0
2685	6.98812e+02	2.68500e+03	0.0181937	700.0
2686	6.98809e+02	2.68600e+03	0.0182096	700.0
2687	6.98812e+02	2.68700e+03	0.0182247	700.0
2688	6.98808e+02	2.68800e+03	0.0182416	700.0
2689	6.98804e+02	2.68900e+03	0.0182514	700.0
2690	6.98812e+02	2.69000e+03	0.0182567	700.0
2691	6.98814e+02	2.69100e+03	0.0182595	700.0
2692	6.98810e+02	2.69200e+03	0.0182468	700.0
2693	6.98808e+02	2.69300e+03	0.0182391	700.0
2694	6.98811e+02	2.69400e+03	0.018231	700.0
2695	6.98814e+02	2.69500e+03	0.0182221	700.0
2696	6.98814e+02	2.69600e+03	0.0182085	700.0
2697	6.98816e+02	2.69700e+03	0.0181981	700.0
2698	6.98813e+02	2.69800e+03	0.0181887	700.0
2699	6.98819e+02	2.69900e+03	0.0181798	700.0
2700	6.98817e+02	2.70000e+03	0.0181765	700.0
2701	6.98816e+02	2.70100e+03	0.0181779	700.0
2702	6.98808e+02	2.70200e+03	0.0181841	700.0
2703	6.98807e+02	2.70300e+03	0.0181923	700.0
2704	6.98808e+02	2.70400e+03	0.0182122	700.0
2705	6.98818e+02	2.70500e+03	0.0182271	700.0
2706	6.98818e+02	2.70600e+03	0.0182406	700.0
2707	6.98809e+02	2.70700e+03	0.0182535	700.0
2708	6.98814e+02	2.70800e+03	0.018265	700.0
2709	6.98811e+02	2.70900e+03	0.0182728	700.0
2710	6.98815e+02	2.71000e+03	0.0182775	700.0
2711	6.98810e+02	2.71100e+03	0.0182796	700.0
2712	6.98813e+02	2.71200e+03	0.0182784	700.0
2713	6.98808e+02	2.71300e+03	0.0182736	700.0
2714	6.98814e+02	2.71400e+03	0.0182666	700.0
2715	6.98810e+02	2.71500e+03	0.0182586	700.0
2716	6.98815e+02	2.71600e+03	0.0182507	700.0
2717	6.98815e+02	2.71700e+03	0.0182435	700.0
2718	6.98814e+02	2.71800e+03	0.0182373	700.0
2719	6.98819e+02	2.71900e+03	0.0182322	700.0
2720	6.98818e+02	2.72000e+03	0.0182278	700.0
