Index	Ts	t	Weight	Tr
[#]	[°C]	[s]	[mg]	[°C]
680	1.30147e+02	6.80000e+02	3.00541	130.0
681	1.30671e+02	6.81000e+02	3.00541	130.5
682	1.31166e+02	6.82000e+02	3.0054	131.0
683	1.31684e+02	6.83000e+02	3.00539	131.5
684	1.32182e+02	6.84000e+02	3.00538	132.0
685	1.32698e+02	6.85000e+02	3.00536	132.5
686	1.33216e+02	6.86000e+02	3.00534	133.0
687	1.33728e+02	6.87000e+02	3.00532	133.5
688	1.34238e+02	6.88000e+02	3.0053	134.0
689	1.34747e+02	6.89000e+02	3.00529	134.5
690	1.35247e+02	6.90000e+02	3.00528	135.0
691	1.35753e+02	6.91000e+02	3.00528	135.5
692	1.36259e+02	6.92000e+02	3.00528	136.0
693	1.36777e+02	6.93000e+02	3.00527	136.5
694	1.37279e+02	6.94000e+02	3.00526	137.0
695	1.37785e+02	6.95000e+02	3.00524	137.5
696	1.38291e+02	6.96000e+02	3.0052	138.0
697	1.38808e+02	6.97000e+02	3.00517	138.5
698	1.39314e+02	6.98000e+02	3.00514	139.0
699	1.39825e+02	6.99000e+02	3.00512	139.5
700	1.40336e+02	7.00000e+02	3.00508	140.0
701	1.40851e+02	7.01000e+02	3.00504	140.5
702	1.41370e+02	7.02000e+02	3.005	141.0
703	1.41858e+02	7.03000e+02	3.00496	141.5
704	1.42373e+02	7.04000e+02	3.0049	142.0
705	1.42890e+02	7.05000e+02	3.00485	142.5
706	1.43385e+02	7.06000e+02	3.0048	143.0
707	1.43898e+02	7.07000e+02	3.00475	143.5
708	1.44404e+02	7.08000e+02	3.00469	144.0
709	1.44914e+02	7.09000e+02	3.00465	144.5
710	1.45419e+02	7.10000e+02	3.00461	145.0
711	1.45942e+02	7.11000e+02	3.00458	145.5
712	1.46434e+02	7.12000e+02	3.00459	146.0
713	1.46950e+02	7.13000e+02	3.00461	146.5
714	1.47452e+02	7.14000e+02	3.00462	147.0
715	1.47968e+02	7.15000e+02	3.00464	147.5
716	1.48482e+02	7.16000e+02	3.0047	148.0
717	1.48991e+02	7.17000e+02	3.00473	148.5
718	1.49489e+02	7.18000e+02	3.00475	149.0
719	1.49994e+02	7.19000e+02	3.00477	149.5
720	1.50504e+02	7.20000e+02	3.00476	150.0
721	1.51015e+02	7.21000e+02	3.00475	150.5
722	1.51522e+02	7.22000e+02	3.00473	151.0
723	1.52035e+02	7.23000e+02	3.00471	151.5
724	1.52549e+02	7.24000e+02	3.00464	152.0
725	1.53052e+02	7.25000e+02	3.00459	152.5
726	1.53566e+02	7.26000e+02	3.00453	153.0
727	1.54065e+02	7.27000e+02	3.00446	153.5
728	1.54572e+02	7.28000e+02	3.00437	154.0
729	1.55080e+02	7.29000e+02	3.0043	154.5
730	1.55594e+02	7.30000e+02	3.00424	155.0
731	1.56101e+02	7.31000e+02	3.00418	155.5
732	1.56614e+02	7.32000e+02	3.00414	156.0
733	1.57127e+02	7.33000e+02	3.00411	156.5
734	1.57630e+02	7.34000e+02	3.00408	157.0
735	1.58141e+02	7.35000e+02	3.00405	157.5
736	1.58656e+02	7.36000e+02	3.00405	158.0
737	1.59152e+02	7.37000e+02	3.00404	158.5
738	1.59667e+02	7.38000e+02	3.00402	159.0
739	1.60163e+02	7.39000e+02	3.00399	159.5
740	1.60685e+02	7.40000e+02	3.00396	160.0
741	1.61193e+02	7.41000e+02	3.00393	160.5
742	1.61707e+02	7.42000e+02	3.0039	161.0
743	1.62219e+02	7.43000e+02	3.00386	161.5
744	1.62726e+02	7.44000e+02	3.0038	162.0
745	1.63225e+02	7.45000e+02	3.00375	162.5
746	1.63742e+02	7.46000e+02	3.0037	163.0
747	1.64262e+02	7.47000e+02	3.00365	163.5
748	1.64754e+02	7.48000e+02	3.0036	164.0
749	1.65262e+02	7.49000e+02	3.00356	164.5
750	1.65777e+02	7.50000e+02	3.00353	165.0
751	1.66293e+02	7.51000e+02	3.0035	165.5
752	1.66802e+02	7.52000e+02	3.00349	166.0
753	1.67304e+02	7.53000e+02	3.00347	166.5
754	1.67816e+02	7.54000e+02	3.00344	167.0
755	1.68316e+02	7.55000e+02	3.00341	167.5
756	1.68829e+02	7.56000e+02	3.00337	168.0
757	1.69336e+02	7.57000e+02	3.00333	168.5
758	1.69840e+02	7.58000e+02	3.00328	169.0
759	1.70351e+02	7.59000e+02	3.00323	169.5
760	1.70862e+02	7.60000e+02	3.00316	170.0
761	1.71366e+02	7.61000e+02	3.0031	170.5
762	1.71892e+02	7.62000e+02	3.00303	171.0
763	1.72397e+02	7.63000e+02	3.00296	171.5
764	1.72893e+02	7.64000e+02	3.00288	172.0
765	1.73417e+02	7.65000e+02	3.00282	172.5
766	1.73930e+02	7.66000e+02	3.00276	173.0
767	1.74440e+02	7.67000e+02	3.00271	173.5
768	1.74956e+02	7.68000e+02	3.00267	174.0
769	1.75450e+02	7.69000e+02	3.00262	174.5
770	1.75961e+02	7.70000e+02	3.00257	175.0
771	1.76472e+02	7.71000e+02	3.00252	175.5
772	1.76977e+02	7.72000e+02	3.00247	176.0
773	1.77487e+02	7.73000e+02	3.00242	176.5
774	1.78001e+02	7.74000e+02	3.00237	177.0
775	1.78515e+02	7.75000e+02	3.00231	177.5
776	1.79025e+02	7.76000e+02	3.00225	178.0
777	1.79539e+02	7.77000e+02	3.00219	178.5
778	1.80048e+02	7.78000e+02	3.00212	179.0
779	1.80554e+02	7.79000e+02	3.00205	179.5
780	1.81067e+02	7.80000e+02	3.00197	180.0
781	1.81585e+02	7.81000e+02	3.0019	180.5
782	1.82083e+02	7.82000e+02	3.00183	181.0
783	1.82594e+02	7.83000e+02	3.00177	181.5
784	1.83114e+02	7.84000e+02	3.00171	182.0
785	1.83622e+02	7.85000e+02	3.00165	182.5
786	1.84133e+02	7.86000e+02	3.00159	183.0
787	1.84635e+02	7.87000e+02	3.00153	183.5
788	1.85160e+02	7.88000e+02	3.00148	184.0
789	1.85656e+02	7.89000e+02	3.00142	184.5
790	1.86180e+02	7.90000e+02	3.00136	185.0
791	1.86695e+02	7.91000e+02	3.0013	185.5
792	1.87198e+02	7.92000e+02	3.00122	186.0
793	1.87713e+02	7.93000e+02	3.00115	186.5
794	1.88213e+02	7.94000e+02	3.00106	187.0
795	1.88733e+02	7.95000e+02	3.00097	187.5
796	1.89251e+02	7.96000e+02	3.00086	188.0
797	1.89761e+02	7.97000e+02	3.00075	188.5
798	1.90269e+02	7.98000e+02	3.00064	189.0
799	1.90778e+02	7.99000e+02	3.00052	189.5
800	1.91284e+02	8.00000e+02	3.00038	190.0
801	1.91805e+02	8.01000e+02	3.00025	190.5
802	1.92324e+02	8.02000e+02	3.00011	191.0
803	1.92826e+02	8.03000e+02	2.99997	191.5
804	1.93327e+02	8.04000e+02	2.99982	192.0
805	1.93852e+02	8.05000e+02	2.99967	192.5
806	1.94359e+02	8.06000e+02	2.99951	193.0
807	1.94872e+02	8.07000e+02	2.99935	193.5
808	1.95389e+02	8.08000e+02	2.99917	194.0
809	1.95902e+02	8.09000e+02	2.99899	194.5
810	1.96417e+02	8.10000e+02	2.99882	195.0
811	1.96932e+02	8.11000e+02	2.99863	195.5
812	1.97436e+02	8.12000e+02	2.99842	196.0
813	1.97945e+02	8.13000e+02	2.9982	196.5
814	1.98460e+02	8.14000e+02	2.99798	197.0
815	1.98976e+02	8.15000e+02	2.99774	197.5
816	1.99480e+02	8.16000e+02	2.99747	198.0
817	1.99990e+02	8.17000e+02	2.99722	198.5
818	2.00511e+02	8.18000e+02	2.99696	199.0
819	2.01021e+02	8.19000e+02	2.9967	199.5
820	2.01540e+02	8.20000e+02	2.99642	200.0
821	2.02063e+02	8.21000e+02	2.99615	200.5
822	2.02568e+02	8.22000e+02	2.99587	201.0
823	2.03076e+02	8.23000e+02	2.99558	201.5
824	2.03586e+02	8.24000e+02	2.99528	202.0
825	2.04112e+02	8.25000e+02	2.99498	202.5
826	2.04629e+02	8.26000e+02	2.99467	203.0
827	2.05135e+02	8.27000e+02	2.99435	203.5
828	2.05640e+02	8.28000e+02	2.99401	204.0
829	2.06157e+02	8.29000e+02	2.99367	204.5
830	2.06670e+02	8.30000e+02	2.99333	205.0
831	2.07180e+02	8.31000e+02	2.99298	205.5
832	2.07700e+02	8.32000e+02	2.99261	206.0
833	2.08207e+02	8.33000e+02	2.99226	206.5
834	2.08723e+02	8.34000e+02	2.9919	207.0
835	2.09234e+02	8.35000e+02	2.99154	207.5
836	2.09756e+02	8.36000e+02	2.99117	208.0
837	2.10266e+02	8.37000e+02	2.99079	208.5
838	2.10794e+02	8.38000e+02	2.99041	209.0
839	2.11289e+02	8.39000e+02	2.99002	209.5
840	2.11812e+02	8.40000e+02	2.98961	210.0
841	2.12325e+02	8.41000e+02	2.9892	210.5
842	2.12831e+02	8.42000e+02	2.9888	211.0
843	2.13345e+02	8.43000e+02	2.9884	211.5
844	2.13862e+02	8.44000e+02	2.98798	212.0
845	2.14377e+02	8.45000e+02	2.98756	212.5
846	2.14889e+02	8.46000e+02	2.98714	213.0
847	2.15390e+02	8.47000e+02	2.98672	213.5
848	2.15906e+02	8.48000e+02	2.98629	214.0
849	2.16409e+02	8.49000e+02	2.98587	214.5
850	2.16918e+02	8.50000e+02	2.98545	215.0
851	2.17423e+02	8.51000e+02	2.98503	215.5
852	2.17929e+02	8.52000e+02	2.98461	216.0
853	2.18439e+02	8.53000e+02	2.98419	216.5
854	2.18949e+02	8.54000e+02	2.98377	217.0
855	2.19458e+02	8.55000e+02	2.98334	217.5
856	2.19970e+02	8.56000e+02	2.98292	218.0
857	2.20486e+02	8.57000e+02	2.9825	218.5
858	2.20993e+02	8.58000e+02	2.98208	219.0
859	2.21503e+02	8.59000e+02	2.98167	219.5
860	2.22007e+02	8.60000e+02	2.98127	220.0
861	2.22522e+02	8.61000e+02	2.98086	220.5
862	2.23038e+02	8.62000e+02	2.98046	221.0
863	2.23539e+02	8.63000e+02	2.98005	221.5
864	2.24053e+02	8.64000e+02	2.97966	222.0
865	2.24570e+02	8.65000e+02	2.97925	222.5
866	2.25075e+02	8.66000e+02	2.97885	223.0
867	2.25597e+02	8.67000e+02	2.97845	223.5
868	2.26100e+02	8.68000e+02	2.97803	224.0
869	2.26627e+02	8.69000e+02	2.97762	224.5
870	2.27132e+02	8.70000e+02	2.9772	225.0
871	2.27644e+02	8.71000e+02	2.97679	225.5
872	2.28150e+02	8.72000e+02	2.97636	226.0
873	2.28671e+02	8.73000e+02	2.97593	226.5
874	2.29183e+02	8.74000e+02	2.97551	227.0
875	2.29693e+02	8.75000e+02	2.97509	227.5
876	2.30196e+02	8.76000e+02	2.97468	228.0
877	2.30711e+02	8.77000e+02	2.97426	228.5
878	2.31215e+02	8.78000e+02	2.97384	229.0
879	2.31724e+02	8.79000e+02	2.97342	229.5
880	2.32239e+02	8.80000e+02	2.973	230.0
881	2.32751e+02	8.81000e+02	2.97257	230.5
882	2.33258e+02	8.82000e+02	2.97213	231.0
883	2.33774e+02	8.83000e+02	2.9717	231.5
884	2.34286e+02	8.84000e+02	2.97124	232.0
885	2.34803e+02	8.85000e+02	2.9708	232.5
886	2.35309e+02	8.86000e+02	2.97036	233.0
887	2.35820e+02	8.87000e+02	2.96991	233.5
888	2.36324e+02	8.88000e+02	2.96947	234.0
889	2.36828e+02	8.89000e+02	2.96903	234.5
890	2.37349e+02	8.90000e+02	2.9686	235.0
891	2.37871e+02	8.91000e+02	2.96816	235.5
892	2.38371e+02	8.92000e+02	2.96773	236.0
893	2.38889e+02	8.93000e+02	2.96729	236.5
894	2.39393e+02	8.94000e+02	2.96685	237.0
895	2.39883e+02	8.95000e+02	2.96641	237.5
896	2.40392e+02	8.96000e+02	2.96595	238.0
897	2.40912e+02	8.97000e+02	2.96549	238.5
898	2.41416e+02	8.98000e+02	2.96503	239.0
899	2.41914e+02	8.99000e+02	2.96457	239.5
900	2.42435e+02	9.00000e+02	2.96408	240.0
901	2.42937e+02	9.01000e+02	2.9636	240.5
902	2.43449e+02	9.02000e+02	2.96312	241.0
903	2.43951e+02	9.03000e+02	2.96264	241.5
904	2.44447e+02	9.04000e+02	2.96215	242.0
905	2.44963e+02	9.05000e+02	2.96166	242.5
906	2.45476e+02	9.06000e+02	2.96117	243.0
907	2.45994e+02	9.07000e+02	2.96067	243.5
908	2.46503e+02	9.08000e+02	2.96017	244.0
909	2.47020e+02	9.09000e+02	2.95967	244.5
910	2.47518e+02	9.10000e+02	2.95918	245.0
911	2.48022e+02	9.11000e+02	2.95869	245.5
912	2.48532e+02	9.12000e+02	2.95819	246.0
913	2.49054e+02	9.13000e+02	2.9577	246.5
914	2.49568e+02	9.14000e+02	2.9572	247.0
915	2.50073e+02	9.15000e+02	2.95671	247.5
916	2.50579e+02	9.16000e+02	2.95621	248.0
917	2.51087e+02	9.17000e+02	2.95571	248.5
918	2.51612e+02	9.18000e+02	2.95522	249.0
919	2.52117e+02	9.19000e+02	2.95472	249.5
920	2.52628e+02	9.20000e+02	2.95423	250.0
921	2.53145e+02	9.21000e+02	2.95372	250.5
922	2.53650e+02	9.22000e+02	2.95321	251.0
923	2.54164e+02	9.23000e+02	2.95269	251.5
924	2.54668e+02	9.24000e+02	2.95215	252.0
925	2.55177e+02	9.25000e+02	2.95163	252.5
926	2.55699e+02	9.26000e+02	2.9511	253.0
927	2.56211e+02	9.27000e+02	2.95058	253.5
928	2.56723e+02	9.28000e+02	2.95006	254.0
929	2.57237e+02	9.29000e+02	2.94954	254.5
930	2.57762e+02	9.30000e+02	2.94902	255.0
931	2.58278e+02	9.31000e+02	2.94851	255.5
932	2.58787e+02	9.32000e+02	2.94801	256.0
933	2.59295e+02	9.33000e+02	2.94751	256.5
934	2.59793e+02	9.34000e+02	2.947	257.0
935	2.60310e+02	9.35000e+02	2.94649	257.5
936	2.60824e+02	9.36000e+02	2.94597	258.0
937	2.61336e+02	9.37000e+02	2.94544	258.5
938	2.61846e+02	9.38000e+02	2.9449	259.0
939	2.62348e+02	9.39000e+02	2.94436	259.5
940	2.62845e+02	9.40000e+02	2.94379	260.0
941	2.63343e+02	9.41000e+02	2.94324	260.5
942	2.63856e+02	9.42000e+02	2.94269	261.0
943	2.64370e+02	9.43000e+02	2.94214	261.5
944	2.64885e+02	9.44000e+02	2.94159	262.0
945	2.65393e+02	9.45000e+02	2.94104	262.5
946	2.65893e+02	9.46000e+02	2.94049	263.0
947	2.66395e+02	9.47000e+02	2.93993	263.5
948	2.66908e+02	9.48000e+02	2.93938	264.0
949	2.67406e+02	9.49000e+02	2.93883	264.5
950	2.67922e+02	9.50000e+02	2.93828	265.0
951	2.68437e+02	9.51000e+02	2.93774	265.5
952	2.68959e+02	9.52000e+02	2.93721	266.0
953	2.69464e+02	9.53000e+02	2.93666	266.5
954	2.69968e+02	9.54000e+02	2.93611	267.0
955	2.70478e+02	9.55000e+02	2.93555	267.5
956	2.70998e+02	9.56000e+02	2.93498	268.0
957	2.71506e+02	9.57000e+02	2.9344	268.5
958	2.72018e+02	9.58000e+02	2.93382	269.0
959	2.72528e+02	9.59000e+02	2.93324	269.5
960	2.73040e+02	9.60000e+02	2.93264	270.0
961	2.73573e+02	9.61000e+02	2.93204	270.5
962	2.74069e+02	9.62000e+02	2.93144	271.0
963	2.74574e+02	9.63000e+02	2.93084	271.5
964	2.75085e+02	9.64000e+02	2.93024	272.0
965	2.75588e+02	9.65000e+02	2.92964	272.5
966	2.76089e+02	9.66000e+02	2.92904	273.0
967	2.76600e+02	9.67000e+02	2.92844	273.5
968	2.77102e+02	9.68000e+02	2.92784	274.0
969	2.77617e+02	9.69000e+02	2.92724	274.5
970	2.78122e+02	9.70000e+02	2.92662	275.0
971	2.78614e+02	9.71000e+02	2.926	275.5
972	2.79128e+02	9.72000e+02	2.92536	276.0
973	2.79676e+02	9.73000e+02	2.92473	276.5
974	2.80185e+02	9.74000e+02	2.92409	277.0
975	2.80730e+02	9.75000e+02	2.92345	277.5
976	2.81255e+02	9.76000e+02	2.9228	278.0
977	2.81748e+02	9.77000e+02	2.92216	278.5
978	2.82237e+02	9.78000e+02	2.92152	279.0
979	2.82752e+02	9.79000e+02	2.92088	279.5
980	2.83264e+02	9.80000e+02	2.92025	280.0
981	2.83775e+02	9.81000e+02	2.91961	280.5
982	2.84278e+02	9.82000e+02	2.91897	281.0
983	2.84790e+02	9.83000e+02	2.91833	281.5
984	2.85411e+02	9.84000e+02	2.91767	282.0
985	2.85954e+02	9.85000e+02	2.91701	282.5
986	2.86450e+02	9.86000e+02	2.91634	283.0
987	2.86947e+02	9.87000e+02	2.91565	283.5
988	2.87434e+02	9.88000e+02	2.91492	284.0
989	2.87929e+02	9.89000e+02	2.91418	284.5
990	2.88429e+02	9.90000e+02	2.91344	285.0
991	2.88939e+02	9.91000e+02	2.9127	285.5
992	2.89439e+02	9.92000e+02	2.91191	286.0
993	2.89947e+02	9.93000e+02	2.91115	286.5
994	2.90461e+02	9.94000e+02	2.91038	287.0
995	2.90974e+02	9.95000e+02	2.90962	287.5
996	2.91469e+02	9.96000e+02	2.90885	288.0
997	2.91967e+02	9.97000e+02	2.90806	288.5
998	2.92477e+02	9.98000e+02	2.90726	289.0
999	2.92992e+02	9.99000e+02	2.90645	289.5
1000	2.93493e+02	1.00000e+03	2.90559	290.0
1001	2.94017e+02	1.00100e+03	2.90475	290.5
1002	2.94519e+02	1.00200e+03	2.9039	291.0
1003	2.95029e+02	1.00300e+03	2.90304	291.5
1004	2.95519e+02	1.00400e+03	2.90215	292.0
1005	2.95998e+02	1.00500e+03	2.90126	292.5
1006	2.96474e+02	1.00600e+03	2.90035	293.0
1007	2.96975e+02	1.00700e+03	2.89943	293.5
1008	2.97481e+02	1.00800e+03	2.89845	294.0
1009	2.97981e+02	1.00900e+03	2.89748	294.5
1010	2.98481e+02	1.01000e+03	2.89649	295.0
1011	2.98981e+02	1.01100e+03	2.89549	295.5
1012	2.99501e+02	1.01200e+03	2.89443	296.0
1013	3.00001e+02	1.01300e+03	2.89338	296.5
1014	3.00507e+02	1.01400e+03	2.89233	297.0
1015	3.00999e+02	1.01500e+03	2.89126	297.5
1016	3.01477e+02	1.01600e+03	2.89015	298.0
1017	3.01976e+02	1.01700e+03	2.88904	298.5
1018	3.02482e+02	1.01800e+03	2.88792	299.0
1019	3.02975e+02	1.01900e+03	2.88679	299.5
1020	3.03468e+02	1.02000e+03	2.8856	300.0
1021	3.03975e+02	1.02100e+03	2.88441	300.5
1022	3.04474e+02	1.02200e+03	2.88322	301.0
1023	3.04983e+02	1.02300e+03	2.88202	301.5
1024	3.05483e+02	1.02400e+03	2.88076	302.0
1025	3.06000e+02	1.02500e+03	2.87952	302.5
1026	3.06503e+02	1.02600e+03	2.87826	303.0
1027	3.07004e+02	1.02700e+03	2.877	303.5
1028	3.07507e+02	1.02800e+03	2.87568	304.0
1029	3.07997e+02	1.02900e+03	2.87436	304.5
1030	3.08493e+02	1.03000e+03	2.87301	305.0
1031	3.08986e+02	1.03100e+03	2.87165	305.5
1032	3.09488e+02	1.03200e+03	2.8702	306.0
1033	3.09982e+02	1.03300e+03	2.86876	306.5
1034	3.10482e+02	1.03400e+03	2.86731	307.0
1035	3.10987e+02	1.03500e+03	2.86585	307.5
1036	3.11469e+02	1.03600e+03	2.86432	308.0
1037	3.11969e+02	1.03700e+03	2.86279	308.5
1038	3.12467e+02	1.03800e+03	2.86124	309.0
1039	3.12956e+02	1.03900e+03	2.85968	309.5
1040	3.13466e+02	1.04000e+03	2.85803	310.0
1041	3.13954e+02	1.04100e+03	2.8564	310.5
1042	3.14446e+02	1.04200e+03	2.85477	311.0
1043	3.14937e+02	1.04300e+03	2.85312	311.5
1044	3.15422e+02	1.04400e+03	2.85141	312.0
1045	3.15913e+02	1.04500e+03	2.84972	312.5
1046	3.16395e+02	1.04600e+03	2.84801	313.0
1047	3.16889e+02	1.04700e+03	2.8463	313.5
1048	3.17389e+02	1.04800e+03	2.84454	314.0
1049	3.17866e+02	1.04900e+03	2.84278	314.5
1050	3.18364e+02	1.05000e+03	2.84102	315.0
1051	3.18862e+02	1.05100e+03	2.83926	315.5
1052	3.19338e+02	1.05200e+03	2.83746	316.0
1053	3.19828e+02	1.05300e+03	2.83566	316.5
1054	3.20326e+02	1.05400e+03	2.83385	317.0
1055	3.20821e+02	1.05500e+03	2.83204	317.5
1056	3.21298e+02	1.05600e+03	2.83019	318.0
1057	3.21781e+02	1.05700e+03	2.82834	318.5
1058	3.22272e+02	1.05800e+03	2.82648	319.0
1059	3.22752e+02	1.05900e+03	2.82461	319.5
1060	3.23228e+02	1.06000e+03	2.8227	320.0
1061	3.23710e+02	1.06100e+03	2.82081	320.5
1062	3.24198e+02	1.06200e+03	2.8189	321.0
1063	3.24687e+02	1.06300e+03	2.81699	321.5
1064	3.25158e+02	1.06400e+03	2.81505	322.0
1065	3.25644e+02	1.06500e+03	2.8131	322.5
1066	3.26121e+02	1.06600e+03	2.81115	323.0
1067	3.26612e+02	1.06700e+03	2.80918	323.5
1068	3.27089e+02	1.06800e+03	2.80716	324.0
1069	3.27570e+02	1.06900e+03	2.80514	324.5
1070	3.28030e+02	1.07000e+03	2.80311	325.0
1071	3.28507e+02	1.07100e+03	2.80105	325.5
1072	3.28977e+02	1.07200e+03	2.79892	326.0
1073	3.29414e+02	1.07300e+03	2.79679	326.5
1074	3.29882e+02	1.07400e+03	2.79464	327.0
1075	3.30354e+02	1.07500e+03	2.79246	327.5
1076	3.30833e+02	1.07600e+03	2.79019	328.0
1077	3.31310e+02	1.07700e+03	2.78793	328.5
1078	3.31800e+02	1.07800e+03	2.78566	329.0
1079	3.32293e+02	1.07900e+03	2.78336	329.5
1080	3.32785e+02	1.08000e+03	2.78098	330.0
1081	3.33288e+02	1.08100e+03	2.77862	330.5
1082	3.33772e+02	1.08200e+03	2.77624	331.0
1083	3.34274e+02	1.08300e+03	2.77385	331.5
1084	3.34764e+02	1.08400e+03	2.77138	332.0
1085	3.35266e+02	1.08500e+03	2.76893	332.5
1086	3.35766e+02	1.08600e+03	2.76646	333.0
1087	3.36273e+02	1.08700e+03	2.76396	333.5
1088	3.36777e+02	1.08800e+03	2.76138	334.0
1089	3.37272e+02	1.08900e+03	2.7588	334.5
1090	3.37775e+02	1.09000e+03	2.75618	335.0
1091	3.38265e+02	1.09100e+03	2.75355	335.5
1092	3.38764e+02	1.09200e+03	2.75079	336.0
1093	3.39271e+02	1.09300e+03	2.74805	336.5
1094	3.39772e+02	1.09400e+03	2.74528	337.0
1095	3.40277e+02	1.09500e+03	2.74248	337.5
1096	3.40768e+02	1.09600e+03	2.73953	338.0
1097	3.41258e+02	1.09700e+03	2.73657	338.5
1098	3.41751e+02	1.09800e+03	2.73356	339.0
1099	3.42252e+02	1.09900e+03	2.7305	339.5
1100	3.42755e+02	1.10000e+03	2.72722	340.0
1101	3.43243e+02	1.10100e+03	2.72394	340.5
1102	3.43748e+02	1.10200e+03	2.72061	341.0
1103	3.44250e+02	1.10300e+03	2.71722	341.5
1104	3.44753e+02	1.10400e+03	2.71353	342.0
1105	3.45242e+02	1.10500e+03	2.70986	342.5
1106	3.45733e+02	1.10600e+03	2.70611	343.0
1107	3.46232e+02	1.10700e+03	2.70229	343.5
1108	3.46730e+02	1.10800e+03	2.69812	344.0
1109	3.47226e+02	1.10900e+03	2.69398	344.5
1110	3.47713e+02	1.11000e+03	2.68974	345.0
1111	3.48212e+02	1.11100e+03	2.68541	345.5
1112	3.48717e+02	1.11200e+03	2.68064	346.0
1113	3.49216e+02	1.11300e+03	2.67589	346.5
1114	3.49716e+02	1.11400e+03	2.671	347.0
1115	3.50217e+02	1.11500e+03	2.66601	347.5
1116	3.50708e+02	1.11600e+03	2.66045	348.0
1117	3.51201e+02	1.11700e+03	2.65498	348.5
1118	3.51707e+02	1.11800e+03	2.64938	349.0
1119	3.52199e+02	1.11900e+03	2.64368	349.5
1120	3.52688e+02	1.12000e+03	2.63738	350.0
1121	3.53185e+02	1.12100e+03	2.63113	350.5
1122	3.53673e+02	1.12200e+03	2.62471	351.0
1123	3.54167e+02	1.12300e+03	2.61814	351.5
1124	3.54674e+02	1.12400e+03	2.61086	352.0
1125	3.55163e+02	1.12500e+03	2.60363	352.5
1126	3.55646e+02	1.12600e+03	2.59621	353.0
1127	3.56127e+02	1.12700e+03	2.58862	353.5
1128	3.56624e+02	1.12800e+03	2.58016	354.0
1129	3.57112e+02	1.12900e+03	2.57178	354.5
1130	3.57603e+02	1.13000e+03	2.56318	355.0
1131	3.58080e+02	1.13100e+03	2.55437	355.5
1132	3.58583e+02	1.13200e+03	2.54458	356.0
1133	3.59070e+02	1.13300e+03	2.5349	356.5
1134	3.59550e+02	1.13400e+03	2.525	357.0
1135	3.60040e+02	1.13500e+03	2.51492	357.5
1136	3.60542e+02	1.13600e+03	2.50382	358.0
1137	3.61034e+02	1.13700e+03	2.49291	358.5
1138	3.61518e+02	1.13800e+03	2.48181	359.0
1139	3.62013e+02	1.13900e+03	2.47054	359.5
1140	3.62502e+02	1.14000e+03	2.45837	360.0
1141	3.62992e+02	1.14100e+03	2.44631	360.5
1142	3.63488e+02	1.14200e+03	2.43405	361.0
1143	3.63986e+02	1.14300e+03	2.4216	361.5
1144	3.64485e+02	1.14400e+03	2.40819	362.0
1145	3.64982e+02	1.14500e+03	2.39486	362.5
1146	3.65473e+02	1.14600e+03	2.38129	363.0
1147	3.65967e+02	1.14700e+03	2.3675	363.5
1148	3.66453e+02	1.14800e+03	2.35263	364.0
1149	3.66942e+02	1.14900e+03	2.33788	364.5
1150	3.67433e+02	1.15000e+03	2.32289	365.0
1151	3.67922e+02	1.15100e+03	2.30768	365.5
1152	3.68429e+02	1.15200e+03	2.29134	366.0
1153	3.68925e+02	1.15300e+03	2.27514	366.5
1154	3.69414e+02	1.15400e+03	2.2587	367.0
1155	3.69902e+02	1.15500e+03	2.24203	367.5
1156	3.70391e+02	1.15600e+03	2.22423	368.0
1157	3.70880e+02	1.15700e+03	2.20659	368.5
1158	3.71401e+02	1.15800e+03	2.18871	369.0
1159	3.71916e+02	1.15900e+03	2.17063	369.5
1160	3.72443e+02	1.16000e+03	2.15143	370.0
1161	3.72977e+02	1.16100e+03	2.13238	370.5
1162	3.73475e+02	1.16200e+03	2.11308	371.0
1163	3.74043e+02	1.16300e+03	2.09354	371.5
1164	3.74675e+02	1.16400e+03	2.07287	372.0
1165	3.75230e+02	1.16500e+03	2.05234	372.5
1166	3.75736e+02	1.16600e+03	2.03156	373.0
1167	3.76205e+02	1.16700e+03	2.01055	373.5
1168	3.76677e+02	1.16800e+03	1.9884	374.0
1169	3.77168e+02	1.16900e+03	1.96643	374.5
1170	3.77642e+02	1.17000e+03	1.94423	375.0
1171	3.78129e+02	1.17100e+03	1.92183	375.5
1172	3.78625e+02	1.17200e+03	1.89837	376.0
1173	3.79104e+02	1.17300e+03	1.87508	376.5
1174	3.79591e+02	1.17400e+03	1.8516	377.0
1175	3.80084e+02	1.17500e+03	1.82795	377.5
1176	3.80578e+02	1.17600e+03	1.80339	378.0
1177	3.81082e+02	1.17700e+03	1.77903	378.5
1178	3.81577e+02	1.17800e+03	1.75454	379.0
1179	3.82065e+02	1.17900e+03	1.72991	379.5
1180	3.82555e+02	1.18000e+03	1.7046	380.0
1181	3.83036e+02	1.18100e+03	1.67942	380.5
1182	3.83522e+02	1.18200e+03	1.65416	381.0
1183	3.84008e+02	1.18300e+03	1.6288	381.5
1184	3.84499e+02	1.18400e+03	1.60296	382.0
1185	3.85001e+02	1.18500e+03	1.57724	382.5
1186	3.85486e+02	1.18600e+03	1.55148	383.0
1187	3.85985e+02	1.18700e+03	1.52566	383.5
1188	3.86463e+02	1.18800e+03	1.49954	384.0
1189	3.86952e+02	1.18900e+03	1.47346	384.5
1190	3.87434e+02	1.19000e+03	1.44732	385.0
1191	3.87930e+02	1.19100e+03	1.42112	385.5
1192	3.88421e+02	1.19200e+03	1.39465	386.0
1193	3.88914e+02	1.19300e+03	1.36822	386.5
1194	3.89409e+02	1.19400e+03	1.34175	387.0
1195	3.89907e+02	1.19500e+03	1.31523	387.5
1196	3.90408e+02	1.19600e+03	1.28846	388.0
1197	3.90910e+02	1.19700e+03	1.26174	388.5
1198	3.91406e+02	1.19800e+03	1.23499	389.0
1199	3.91899e+02	1.19900e+03	1.20823	389.5
1200	3.92397e+02	1.20000e+03	1.18137	390.0
1201	3.92893e+02	1.20100e+03	1.15462	390.5
1202	3.93389e+02	1.20200e+03	1.12794	391.0
1203	3.93889e+02	1.20300e+03	1.10132	391.5
1204	3.94402e+02	1.20400e+03	1.07495	392.0
1205	3.94897e+02	1.20500e+03	1.0486	392.5
1206	3.95397e+02	1.20600e+03	1.02233	393.0
1207	3.95927e+02	1.20700e+03	0.996125	393.5
1208	3.96436e+02	1.20800e+03	0.970297	394.0
1209	3.96946e+02	1.20900e+03	0.944387	394.5
1210	3.97470e+02	1.21000e+03	0.918533	395.0
1211	3.97978e+02	1.21100e+03	0.892741	395.5
1212	3.98495e+02	1.21200e+03	0.86723	396.0
1213	3.98997e+02	1.21300e+03	0.841691	396.5
1214	3.99529e+02	1.21400e+03	0.816229	397.0
1215	4.00056e+02	1.21500e+03	0.79084	397.5
1216	4.00591e+02	1.21600e+03	0.765824	398.0
1217	4.01107e+02	1.21700e+03	0.740833	398.5
1218	4.01626e+02	1.21800e+03	0.716006	399.0
1219	4.02131e+02	1.21900e+03	0.691316	399.5
1220	4.02648e+02	1.22000e+03	0.667319	400.0
1221	4.03170e+02	1.22100e+03	0.643347	400.5
1222	4.03684e+02	1.22200e+03	0.619632	401.0
1223	4.04222e+02	1.22300e+03	0.596134	401.5
1224	4.04725e+02	1.22400e+03	0.573788	402.0
1225	4.05232e+02	1.22500e+03	0.551416	402.5
1226	4.05750e+02	1.22600e+03	0.529408	403.0
1227	4.06289e+02	1.22700e+03	0.507717	403.5
1228	4.06803e+02	1.22800e+03	0.487607	404.0
1229	4.07324e+02	1.22900e+03	0.467375	404.5
1230	4.07847e+02	1.23000e+03	0.447543	405.0
1231	4.08352e+02	1.23100e+03	0.42806	405.5
1232	4.08849e+02	1.23200e+03	0.410404	406.0
1233	4.09370e+02	1.23300e+03	0.39252	406.5
1234	4.09888e+02	1.23400e+03	0.375034	407.0
1235	4.10394e+02	1.23500e+03	0.35791	407.5
1236	4.10908e+02	1.23600e+03	0.342652	408.0
1237	4.11413e+02	1.23700e+03	0.32715	408.5
1238	4.11955e+02	1.23800e+03	0.312036	409.0
1239	4.12481e+02	1.23900e+03	0.297277	409.5
1240	4.12990e+02	1.24000e+03	0.284349	410.0
1241	4.13520e+02	1.24100e+03	0.27114	410.5
1242	4.14055e+02	1.24200e+03	0.258279	411.0
1243	4.14593e+02	1.24300e+03	0.245747	411.5
1244	4.15106e+02	1.24400e+03	0.234897	412.0
1245	4.15626e+02	1.24500e+03	0.223782	412.5
1246	4.16144e+02	1.24600e+03	0.212977	413.0
1247	4.16659e+02	1.24700e+03	0.202466	413.5
1248	4.17164e+02	1.24800e+03	0.193466	414.0
1249	4.17698e+02	1.24900e+03	0.184212	414.5
1250	4.18206e+02	1.25000e+03	0.175228	415.0
1251	4.18713e+02	1.25100e+03	0.166504	415.5
1252	4.19235e+02	1.25200e+03	0.159103	416.0
1253	4.19747e+02	1.25300e+03	0.151486	416.5
1254	4.20268e+02	1.25400e+03	0.144105	417.0
1255	4.20766e+02	1.25500e+03	0.136951	417.5
1256	4.21269e+02	1.25600e+03	0.130958	418.0
1257	4.21793e+02	1.25700e+03	0.124763	418.5
1258	4.22296e+02	1.25800e+03	0.118765	419.0
1259	4.22808e+02	1.25900e+03	0.112962	419.5
1260	4.23309e+02	1.26000e+03	0.108152	420.0
1261	4.23820e+02	1.26100e+03	0.103171	420.5
1262	4.24323e+02	1.26200e+03	0.0983578	421.0
1263	4.24835e+02	1.26300e+03	0.0937054	421.5
1264	4.25353e+02	1.26400e+03	0.0898837	422.0
1265	4.25847e+02	1.26500e+03	0.0859013	422.5
1266	4.26342e+02	1.26600e+03	0.0820472	423.0
1267	4.26867e+02	1.26700e+03	0.0783223	423.5
1268	4.27356e+02	1.26800e+03	0.0752674	424.0
1269	4.27854e+02	1.26900e+03	0.0720975	424.5
1270	4.28374e+02	1.27000e+03	0.0690409	425.0
1271	4.28881e+02	1.27100e+03	0.0660933	425.5
1272	4.29384e+02	1.27200e+03	0.0637093	426.0
1273	4.29887e+02	1.27300e+03	0.0612184	426.5
1274	4.30401e+02	1.27400e+03	0.0588141	427.0
1275	4.30894e+02	1.27500e+03	0.056496	427.5
1276	4.31391e+02	1.27600e+03	0.0546284	428.0
1277	4.31909e+02	1.27700e+03	0.0526713	428.5
1278	4.32395e+02	1.27800e+03	0.0507786	429.0
1279	4.32902e+02	1.27900e+03	0.0489501	429.5
1280	4.33397e+02	1.28000e+03	0.0474509	430.0
1281	4.33882e+02	1.28100e+03	0.0458744	430.5
1282	4.34372e+02	1.28200e+03	0.0443384	431.0
1283	4.34864e+02	1.28300e+03	0.0428475	431.5
1284	4.35371e+02	1.28400e+03	0.0415871	432.0
1285	4.35871e+02	1.28500e+03	0.0402887	432.5
1286	4.36358e+02	1.28600e+03	0.0390328	433.0
1287	4.36859e+02	1.28700e+03	0.0378175	433.5
1288	4.37354e+02	1.28800e+03	0.0368008	434.0
1289	4.37862e+02	1.28900e+03	0.0357469	434.5
1290	4.38357e+02	1.29000e+03	0.0347234	435.0
1291	4.38859e+02	1.29100e+03	0.0337305	435.5
1292	4.39352e+02	1.29200e+03	0.0329047	436.0
1293	4.39858e+02	1.29300e+03	0.0320457	436.5
1294	4.40355e+02	1.29400e+03	0.0312097	437.0
1295	4.40859e+02	1.29500e+03	0.0303975	437.5
1296	4.41364e+02	1.29600e+03	0.0297056	438.0
1297	4.41855e+02	1.29700e+03	0.0289841	438.5
1298	4.42354e+02	1.29800e+03	0.0282766	439.0
1299	4.42849e+02	1.29900e+03	0.0275854	439.5
1300	4.43326e+02	1.30000e+03	0.0269747	440.0
1301	4.43813e+02	1.30100e+03	0.0263485	440.5
1302	4.44296e+02	1.30200e+03	0.0257345	441.0
1303	4.44780e+02	1.30300e+03	0.0251332	441.5
1304	4.45273e+02	1.30400e+03	0.0245924	442.0
1305	4.45757e+02	1.30500e+03	0.0240382	442.5
1306	4.46260e+02	1.30600e+03	0.0234931	443.0
1307	4.46758e+02	1.30700e+03	0.0229574	443.5
1308	4.47260e+02	1.30800e+03	0.0224741	444.0
1309	4.47753e+02	1.30900e+03	0.0219922	444.5
1310	4.48248e+02	1.31000e+03	0.021532	445.0
1311	4.48730e+02	1.31100e+03	0.0210902	445.5
1312	4.49224e+02	1.31200e+03	0.0207387	446.0
1313	4.49708e+02	1.31300e+03	0.0203862	446.5
1314	4.50204e+02	1.31400e+03	0.020055	447.0
1315	4.50707e+02	1.31500e+03	0.0197402	447.5
1316	4.51200e+02	1.31600e+03	0.0195282	448.0
1317	4.51702e+02	1.31700e+03	0.0192854	448.5
1318	4.52197e+02	1.31800e+03	0.0190507	449.0
1319	4.52706e+02	1.31900e+03	0.0188277	449.5
1320	4.53199e+02	1.32000e+03	0.0186529	450.0
1321	4.53699e+02	1.32100e+03	0.0184652	450.5
1322	4.54205e+02	1.32200e+03	0.0182817	451.0
1323	4.54707e+02	1.32300e+03	0.018103	451.5
1324	4.55201e+02	1.32400e+03	0.0179494	452.0
1325	4.55690e+02	1.32500e+03	0.0177886	452.5
1326	4.56180e+02	1.32600e+03	0.0176356	453.0
1327	4.56674e+02	1.32700e+03	0.0174922	453.5
1328	4.57165e+02	1.32800e+03	0.0173837	454.0
1329	4.57654e+02	1.32900e+03	0.0172806	454.5
1330	4.58145e+02	1.33000e+03	0.0171876	455.0
1331	4.58643e+02	1.33100e+03	0.0171018	455.5
1332	4.59128e+02	1.33200e+03	0.0170623	456.0
1333	4.59628e+02	1.33300e+03	0.0170021	456.5
1334	4.60133e+02	1.33400e+03	0.0169438	457.0
1335	4.60626e+02	1.33500e+03	0.0168902	457.5
1336	4.61120e+02	1.33600e+03	0.0168526	458.0
1337	4.61616e+02	1.33700e+03	0.0168159	458.5
1338	4.62143e+02	1.33800e+03	0.0167815	459.0
1339	4.62681e+02	1.33900e+03	0.0167474	459.5
1340	4.63192e+02	1.34000e+03	0.016719	460.0
1341	4.63708e+02	1.34100e+03	0.0166786	460.5
1342	4.64224e+02	1.34200e+03	0.0166372	461.0
1343	4.64786e+02	1.34300e+03	0.0165976	461.5
1344	4.65301e+02	1.34400e+03	0.0165476	462.0
1345	4.65804e+02	1.34500e+03	0.0165092	462.5
1346	4.66300e+02	1.34600e+03	0.0164745	463.0
1347	4.66785e+02	1.34700e+03	0.0164408	463.5
1348	4.67287e+02	1.34800e+03	0.016418	464.0
1349	4.67777e+02	1.34900e+03	0.016387	464.5
1350	4.68259e+02	1.35000e+03	0.0163545	465.0
1351	4.68741e+02	1.35100e+03	0.0163219	465.5
1352	4.69235e+02	1.35200e+03	0.0162827	466.0
1353	4.69750e+02	1.35300e+03	0.0162442	466.5
1354	4.70247e+02	1.35400e+03	0.0162028	467.0
1355	4.70738e+02	1.35500e+03	0.0161583	467.5
1356	4.71228e+02	1.35600e+03	0.0161023	468.0
1357	4.71720e+02	1.35700e+03	0.016045	468.5
1358	4.72217e+02	1.35800e+03	0.0159866	469.0
1359	4.72715e+02	1.35900e+03	0.0159287	469.5
1360	4.73233e+02	1.36000e+03	0.0158694	470.0
1361	4.73735e+02	1.36100e+03	0.0158243	470.5
1362	4.74232e+02	1.36200e+03	0.0157883	471.0
1363	4.74730e+02	1.36300e+03	0.0157571	471.5
1364	4.75239e+02	1.36400e+03	0.0157525	472.0
1365	4.75752e+02	1.36500e+03	0.0157359	472.5
1366	4.76273e+02	1.36600e+03	0.0157179	473.0
1367	4.76785e+02	1.36700e+03	0.0157006	473.5
1368	4.77288e+02	1.36800e+03	0.0156892	474.0
1369	4.77787e+02	1.36900e+03	0.0156776	474.5
1370	4.78296e+02	1.37000e+03	0.0156679	475.0
1371	4.78802e+02	1.37100e+03	0.0156595	475.5
1372	4.79301e+02	1.37200e+03	0.0156533	476.0
1373	4.79813e+02	1.37300e+03	0.0156442	476.5
1374	4.80319e+02	1.37400e+03	0.015633	477.0
1375	4.80831e+02	1.37500e+03	0.0156207	477.5
1376	4.81356e+02	1.37600e+03	0.0156082	478.0
1377	4.81877e+02	1.37700e+03	0.0155969	478.5
1378	4.82357e+02	1.37800e+03	0.0155859	479.0
1379	4.82845e+02	1.37900e+03	0.0155745	479.5
1380	4.83362e+02	1.38000e+03	0.0155572	480.0
1381	4.83855e+02	1.38100e+03	0.0155372	480.5
1382	4.84355e+02	1.38200e+03	0.0155145	481.0
1383	4.84835e+02	1.38300e+03	0.0154908	481.5
1384	4.85333e+02	1.38400e+03	0.0154681	482.0
1385	4.85835e+02	1.38500e+03	0.0154589	482.5
1386	4.86340e+02	1.38600e+03	0.0154605	483.0
1387	4.86836e+02	1.38700e+03	0.0154684	483.5
1388	4.87349e+02	1.38800e+03	0.0155006	484.0
1389	4.87874e+02	1.38900e+03	0.0155197	484.5
1390	4.88379e+02	1.39000e+03	0.0155314	485.0
1391	4.88891e+02	1.39100e+03	0.0155381	485.5
1392	4.89368e+02	1.39200e+03	0.0155308	486.0
1393	4.89847e+02	1.39300e+03	0.0155146	486.5
1394	4.90361e+02	1.39400e+03	0.0154914	487.0
1395	4.90906e+02	1.39500e+03	0.015464	487.5
1396	4.91382e+02	1.39600e+03	0.0154019	488.0
1397	4.91879e+02	1.39700e+03	0.0153554	488.5
1398	4.92341e+02	1.39800e+03	0.0153094	489.0
1399	4.92829e+02	1.39900e+03	0.0152615	489.5
1400	4.93306e+02	1.40000e+03	0.0152111	490.0
1401	4.93778e+02	1.40100e+03	0.0151628	490.5
1402	4.94267e+02	1.40200e+03	0.0151176	491.0
1403	4.94735e+02	1.40300e+03	0.0150753	491.5
1404	4.95241e+02	1.40400e+03	0.0150398	492.0
1405	4.95723e+02	1.40500e+03	0.0150055	492.5
1406	4.96202e+02	1.40600e+03	0.0149714	493.0
1407	4.96628e+02	1.40700e+03	0.0149364	493.5
1408	4.97100e+02	1.40800e+03	0.0149077	494.0
1409	4.97571e+02	1.40900e+03	0.0148738	494.5
1410	4.98051e+02	1.41000e+03	0.0148421	495.0
1411	4.98535e+02	1.41100e+03	0.0148139	495.5
1412	4.99018e+02	1.41200e+03	0.0147937	496.0
1413	4.99520e+02	1.41300e+03	0.0147833	496.5
1414	5.00021e+02	1.41400e+03	0.0147791	497.0
1415	5.00505e+02	1.41500e+03	0.0147774	497.5
1416	5.01019e+02	1.41600e+03	0.014801	498.0
1417	5.01505e+02	1.41700e+03	0.0148118	498.5
1418	5.01984e+02	1.41800e+03	0.0148219	499.0
1419	5.02451e+02	1.41900e+03	0.0148331	499.5
1420	5.02938e+02	1.42000e+03	0.0148446	500.0
1421	5.03423e+02	1.42100e+03	0.0148566	500.5
1422	5.03906e+02	1.42200e+03	0.0148665	501.0
1423	5.04391e+02	1.42300e+03	0.0148737	501.5
1424	5.04875e+02	1.42400e+03	0.0148734	502.0
1425	5.05360e+02	1.42500e+03	0.0148694	502.5
1426	5.05854e+02	1.42600e+03	0.0148626	503.0
1427	5.06345e+02	1.42700e+03	0.0148548	503.5
1428	5.06853e+02	1.42800e+03	0.0148371	504.0
1429	5.07359e+02	1.42900e+03	0.0148303	504.5
1430	5.07848e+02	1.43000e+03	0.0148275	505.0
1431	5.08357e+02	1.43100e+03	0.0148258	505.5
1432	5.08857e+02	1.43200e+03	0.014831	506.0
1433	5.09352e+02	1.43300e+03	0.0148295	506.5
1434	5.09857e+02	1.43400e+03	0.0148268	507.0
1435	5.10337e+02	1.43500e+03	0.0148245	507.5
1436	5.10838e+02	1.43600e+03	0.0148238	508.0
1437	5.11344e+02	1.43700e+03	0.0148283	508.5
1438	5.11817e+02	1.43800e+03	0.014835	509.0
1439	5.12308e+02	1.43900e+03	0.0148419	509.5
1440	5.12803e+02	1.44000e+03	0.0148519	510.0
1441	5.13292e+02	1.44100e+03	0.0148524	510.5
1442	5.13772e+02	1.44200e+03	0.0148467	511.0
1443	5.14261e+02	1.44300e+03	0.0148376	511.5
1444	5.14759e+02	1.44400e+03	0.0148128	512.0
1445	5.15256e+02	1.44500e+03	0.0147949	512.5
1446	5.15741e+02	1.44600e+03	0.0147787	513.0
1447	5.16240e+02	1.44700e+03	0.0147625	513.5
1448	5.16733e+02	1.44800e+03	0.0147363	514.0
1449	5.17226e+02	1.44900e+03	0.0147081	514.5
1450	5.17726e+02	1.45000e+03	0.0146763	515.0
1451	5.18214e+02	1.45100e+03	0.0146426	515.5
1452	5.18706e+02	1.45200e+03	0.0146054	516.0
1453	5.19203e+02	1.45300e+03	0.0145773	516.5
1454	5.19700e+02	1.45400e+03	0.014556	517.0
1455	5.20180e+02	1.45500e+03	0.0145388	517.5
1456	5.20674e+02	1.45600e+03	0.0145371	518.0
1457	5.21171e+02	1.45700e+03	0.0145301	518.5
1458	5.21684e+02	1.45800e+03	0.0145202	519.0
1459	5.22192e+02	1.45900e+03	0.0145084	519.5
1460	5.22690e+02	1.46000e+03	0.0144988	520.0
1461	5.23178e+02	1.46100e+03	0.0144838	520.5
1462	5.23684e+02	1.46200e+03	0.0144674	521.0
1463	5.24178e+02	1.46300e+03	0.0144506	521.5
1464	5.24679e+02	1.46400e+03	0.0144211	522.0
1465	5.25188e+02	1.46500e+03	0.0143951	522.5
1466	5.25686e+02	1.46600e+03	0.0143682	523.0
1467	5.26175e+02	1.46700e+03	0.0143408	523.5
1468	5.26663e+02	1.46800e+03	0.0143162	524.0
1469	5.27152e+02	1.46900e+03	0.0142977	524.5
1470	5.27646e+02	1.47000e+03	0.0142858	525.0
1471	5.28141e+02	1.47100e+03	0.0142786	525.5
1472	5.28631e+02	1.47200e+03	0.0142884	526.0
1473	5.29120e+02	1.47300e+03	0.0142928	526.5
1474	5.29613e+02	1.47400e+03	0.0142961	527.0
1475	5.30121e+02	1.47500e+03	0.0142995	527.5
1476	5.30616e+02	1.47600e+03	0.0143143	528.0
1477	5.31112e+02	1.47700e+03	0.0143268	528.5
1478	5.31603e+02	1.47800e+03	0.0143435	529.0
1479	5.32118e+02	1.47900e+03	0.0143645	529.5
1480	5.32604e+02	1.48000e+03	0.0143929	530.0
1481	5.33096e+02	1.48100e+03	0.0144178	530.5
1482	5.33584e+02	1.48200e+03	0.0144379	531.0
1483	5.34091e+02	1.48300e+03	0.014454	531.5
1484	5.34579e+02	1.48400e+03	0.0144589	532.0
1485	5.35052e+02	1.48500e+03	0.014454	532.5
1486	5.35548e+02	1.48600e+03	0.0144422	533.0
1487	5.36026e+02	1.48700e+03	0.0144262	533.5
1488	5.36516e+02	1.48800e+03	0.0143782	534.0
1489	5.37002e+02	1.48900e+03	0.0143452	534.5
1490	5.37503e+02	1.49000e+03	0.0143131	535.0
1491	5.38013e+02	1.49100e+03	0.0142797	535.5
1492	5.38496e+02	1.49200e+03	0.0142442	536.0
1493	5.38989e+02	1.49300e+03	0.0142109	536.5
1494	5.39490e+02	1.49400e+03	0.0141817	537.0
1495	5.40006e+02	1.49500e+03	0.014156	537.5
1496	5.40516e+02	1.49600e+03	0.0141438	538.0
1497	5.41005e+02	1.49700e+03	0.0141368	538.5
1498	5.41490e+02	1.49800e+03	0.0141343	539.0
1499	5.41985e+02	1.49900e+03	0.0141335	539.5
1500	5.42488e+02	1.50000e+03	0.0141537	540.0
1501	5.42972e+02	1.50100e+03	0.0141615	540.5
1502	5.43478e+02	1.50200e+03	0.0141668	541.0
1503	5.43989e+02	1.50300e+03	0.0141718	541.5
1504	5.44507e+02	1.50400e+03	0.0141733	542.0
1505	5.45032e+02	1.50500e+03	0.0141775	542.5
1506	5.45516e+02	1.50600e+03	0.0141815	543.0
1507	5.45990e+02	1.50700e+03	0.0141843	543.5
1508	5.46501e+02	1.50800e+03	0.0141791	544.0
1509	5.46969e+02	1.50900e+03	0.0141691	544.5
1510	5.47428e+02	1.51000e+03	0.0141536	545.0
1511	5.47909e+02	1.51100e+03	0.014135	545.5
1512	5.48371e+02	1.51200e+03	0.0141088	546.0
1513	5.48843e+02	1.51300e+03	0.0140961	546.5
1514	5.49324e+02	1.51400e+03	0.0140911	547.0
1515	5.49796e+02	1.51500e+03	0.0140907	547.5
1516	5.50291e+02	1.51600e+03	0.0141066	548.0
1517	5.50781e+02	1.51700e+03	0.0141148	548.5
1518	5.51246e+02	1.51800e+03	0.0141207	549.0
1519	5.51740e+02	1.51900e+03	0.0141262	549.5
1520	5.52226e+02	1.52000e+03	0.0141358	550.0
1521	5.52701e+02	1.52100e+03	0.0141407	550.5
1522	5.53187e+02	1.52200e+03	0.0141412	551.0
1523	5.53685e+02	1.52300e+03	0.0141379	551.5
1524	5.54187e+02	1.52400e+03	0.014121	552.0
1525	5.54696e+02	1.52500e+03	0.0141021	552.5
1526	5.55197e+02	1.52600e+03	0.0140796	553.0
1527	5.55699e+02	1.52700e+03	0.0140575	553.5
1528	5.56188e+02	1.52800e+03	0.0140309	554.0
1529	5.56675e+02	1.52900e+03	0.0140172	554.5
1530	5.57168e+02	1.53000e+03	0.0140109	555.0
1531	5.57652e+02	1.53100e+03	0.0140084	555.5
1532	5.58139e+02	1.53200e+03	0.0140251	556.0
1533	5.58616e+02	1.53300e+03	0.0140302	556.5
1534	5.59106e+02	1.53400e+03	0.0140309	557.0
1535	5.59580e+02	1.53500e+03	0.0140298	557.5
1536	5.60062e+02	1.53600e+03	0.0140219	558.0
1537	5.60552e+02	1.53700e+03	0.0140115	558.5
1538	5.61032e+02	1.53800e+03	0.0139988	559.0
1539	5.61520e+02	1.53900e+03	0.0139848	559.5
1540	5.61995e+02	1.54000e+03	0.0139577	560.0
1541	5.62466e+02	1.54100e+03	0.0139353	560.5
1542	5.62949e+02	1.54200e+03	0.0139129	561.0
1543	5.63431e+02	1.54300e+03	0.0138897	561.5
1544	5.63893e+02	1.54400e+03	0.0138662	562.0
1545	5.64378e+02	1.54500e+03	0.0138442	562.5
1546	5.64864e+02	1.54600e+03	0.0138222	563.0
1547	5.65365e+02	1.54700e+03	0.0137997	563.5
1548	5.65874e+02	1.54800e+03	0.0137745	564.0
1549	5.66380e+02	1.54900e+03	0.0137453	564.5
1550	5.66868e+02	1.55000e+03	0.0137125	565.0
1551	5.67359e+02	1.55100e+03	0.0136778	565.5
1552	5.67853e+02	1.55200e+03	0.0136363	566.0
1553	5.68344e+02	1.55300e+03	0.0136035	566.5
1554	5.68827e+02	1.55400e+03	0.0135762	567.0
1555	5.69302e+02	1.55500e+03	0.0135518	567.5
1556	5.69791e+02	1.55600e+03	0.0135371	568.0
1557	5.70294e+02	1.55700e+03	0.0135193	568.5
1558	5.70790e+02	1.55800e+03	0.0134983	569.0
1559	5.71290e+02	1.55900e+03	0.0134747	569.5
1560	5.71792e+02	1.56000e+03	0.0134535	570.0
1561	5.72293e+02	1.56100e+03	0.0134304	570.5
1562	5.72781e+02	1.56200e+03	0.0134082	571.0
1563	5.73268e+02	1.56300e+03	0.0133875	571.5
1564	5.73774e+02	1.56400e+03	0.0133644	572.0
1565	5.74268e+02	1.56500e+03	0.0133439	572.5
1566	5.74771e+02	1.56600e+03	0.0133222	573.0
1567	5.75270e+02	1.56700e+03	0.0132981	573.5
1568	5.75768e+02	1.56800e+03	0.0132729	574.0
1569	5.76263e+02	1.56900e+03	0.0132459	574.5
1570	5.76759e+02	1.57000e+03	0.0132217	575.0
1571	5.77254e+02	1.57100e+03	0.0132009	575.5
1572	5.77737e+02	1.57200e+03	0.0131818	576.0
1573	5.78242e+02	1.57300e+03	0.0131717	576.5
1574	5.78740e+02	1.57400e+03	0.0131661	577.0
1575	5.79221e+02	1.57500e+03	0.0131622	577.5
1576	5.79716e+02	1.57600e+03	0.0131775	578.0
1577	5.80217e+02	1.57700e+03	0.0131816	578.5
1578	5.80711e+02	1.57800e+03	0.0131836	579.0
1579	5.81202e+02	1.57900e+03	0.0131857	579.5
1580	5.81703e+02	1.58000e+03	0.0131832	580.0
1581	5.82212e+02	1.58100e+03	0.0131806	580.5
1582	5.82694e+02	1.58200e+03	0.0131758	581.0
1583	5.83193e+02	1.58300e+03	0.0131694	581.5
1584	5.83684e+02	1.58400e+03	0.0131559	582.0
1585	5.84202e+02	1.58500e+03	0.0131425	582.5
1586	5.84701e+02	1.58600e+03	0.0131294	583.0
1587	5.85203e+02	1.58700e+03	0.013117	583.5
1588	5.85722e+02	1.58800e+03	0.0131028	584.0
1589	5.86249e+02	1.58900e+03	0.0130939	584.5
1590	5.86778e+02	1.59000e+03	0.0130865	585.0
1591	5.87281e+02	1.59100e+03	0.0130791	585.5
1592	5.87812e+02	1.59200e+03	0.0130758	586.0
1593	5.88356e+02	1.59300e+03	0.0130653	586.5
1594	5.88838e+02	1.59400e+03	0.0130521	587.0
1595	5.89296e+02	1.59500e+03	0.0130383	587.5
1596	5.89805e+02	1.59600e+03	0.0130161	588.0
1597	5.90322e+02	1.59700e+03	0.0129978	588.5
1598	5.90800e+02	1.59800e+03	0.0129799	589.0
1599	5.91292e+02	1.59900e+03	0.0129613	589.5
1600	5.91774e+02	1.60000e+03	0.0129386	590.0
1601	5.92259e+02	1.60100e+03	0.0129143	590.5
1602	5.92757e+02	1.60200e+03	0.0128893	591.0
1603	5.93250e+02	1.60300e+03	0.0128651	591.5
1604	5.93736e+02	1.60400e+03	0.0128427	592.0
1605	5.94221e+02	1.60500e+03	0.0128275	592.5
1606	5.94704e+02	1.60600e+03	0.0128177	593.0
1607	5.95188e+02	1.60700e+03	0.012811	593.5
1608	5.95663e+02	1.60800e+03	0.0128188	594.0
1609	5.96141e+02	1.60900e+03	0.0128167	594.5
1610	5.96619e+02	1.61000e+03	0.0128115	595.0
1611	5.97092e+02	1.61100e+03	0.012806	595.5
1612	5.97580e+02	1.61200e+03	0.0128056	596.0
1613	5.98071e+02	1.61300e+03	0.0128083	596.5
1614	5.98586e+02	1.61400e+03	0.0128126	597.0
1615	5.99082e+02	1.61500e+03	0.0128175	597.5
1616	5.99595e+02	1.61600e+03	0.0128264	598.0
1617	6.00074e+02	1.61700e+03	0.0128298	598.5
1618	6.00572e+02	1.61800e+03	0.0128341	599.0
1619	6.01033e+02	1.61900e+03	0.0128408	599.5
1620	6.01510e+02	1.62000e+03	0.0128537	600.0
1621	6.01976e+02	1.62100e+03	0.0128745	600.5
1622	6.02450e+02	1.62200e+03	0.0129015	601.0
1623	6.02929e+02	1.62300e+03	0.0129316	601.5
1624	6.03420e+02	1.62400e+03	0.0129704	602.0
1625	6.03918e+02	1.62500e+03	0.0129891	602.5
1626	6.04412e+02	1.62600e+03	0.0129922	603.0
1627	6.04884e+02	1.62700e+03	0.0129847	603.5
1628	6.05372e+02	1.62800e+03	0.0129385	604.0
1629	6.05859e+02	1.62900e+03	0.0129032	604.5
1630	6.06358e+02	1.63000e+03	0.0128693	605.0
1631	6.06847e+02	1.63100e+03	0.0128351	605.5
1632	6.07342e+02	1.63200e+03	0.012782	606.0
1633	6.07852e+02	1.63300e+03	0.0127411	606.5
1634	6.08335e+02	1.63400e+03	0.0127	607.0
1635	6.08819e+02	1.63500e+03	0.0126566	607.5
1636	6.09305e+02	1.63600e+03	0.0126157	608.0
1637	6.09812e+02	1.63700e+03	0.0125689	608.5
1638	6.10300e+02	1.63800e+03	0.0125234	609.0
1639	6.10794e+02	1.63900e+03	0.0124807	609.5
1640	6.11282e+02	1.64000e+03	0.0124402	610.0
1641	6.11784e+02	1.64100e+03	0.012412	610.5
1642	6.12271e+02	1.64200e+03	0.0123915	611.0
1643	6.12758e+02	1.64300e+03	0.0123754	611.5
1644	6.13248e+02	1.64400e+03	0.0123983	612.0
1645	6.13760e+02	1.64500e+03	0.0124141	612.5
1646	6.14234e+02	1.64600e+03	0.0124356	613.0
1647	6.14739e+02	1.64700e+03	0.0124628	613.5
1648	6.15259e+02	1.64800e+03	0.0125177	614.0
1649	6.15765e+02	1.64900e+03	0.0125641	614.5
1650	6.16267e+02	1.65000e+03	0.0126098	615.0
1651	6.16760e+02	1.65100e+03	0.0126555	615.5
1652	6.17248e+02	1.65200e+03	0.0127046	616.0
1653	6.17730e+02	1.65300e+03	0.0127441	616.5
1654	6.18245e+02	1.65400e+03	0.0127788	617.0
1655	6.18728e+02	1.65500e+03	0.0128115	617.5
1656	6.19222e+02	1.65600e+03	0.012818	618.0
1657	6.19725e+02	1.65700e+03	0.0128259	618.5
1658	6.20225e+02	1.65800e+03	0.0128264	619.0
1659	6.20733e+02	1.65900e+03	0.0128207	619.5
1660	6.21250e+02	1.66000e+03	0.0127863	620.0
1661	6.21753e+02	1.66100e+03	0.0127591	620.5
1662	6.22256e+02	1.66200e+03	0.012731	621.0
1663	6.22756e+02	1.66300e+03	0.0127015	621.5
1664	6.23251e+02	1.66400e+03	0.0126646	622.0
1665	6.23758e+02	1.66500e+03	0.0126383	622.5
1666	6.24279e+02	1.66600e+03	0.0126136	623.0
1667	6.24762e+02	1.66700e+03	0.0125874	623.5
1668	6.25283e+02	1.66800e+03	0.0125718	624.0
1669	6.25779e+02	1.66900e+03	0.0125486	624.5
1670	6.26275e+02	1.67000e+03	0.0125232	625.0
1671	6.26790e+02	1.67100e+03	0.012498	625.5
1672	6.27310e+02	1.67200e+03	0.0124616	626.0
1673	6.27833e+02	1.67300e+03	0.0124261	626.5
1674	6.28357e+02	1.67400e+03	0.0123898	627.0
1675	6.28868e+02	1.67500e+03	0.0123528	627.5
1676	6.29377e+02	1.67600e+03	0.0123114	628.0
1677	6.29885e+02	1.67700e+03	0.0122768	628.5
1678	6.30383e+02	1.67800e+03	0.0122474	629.0
1679	6.30891e+02	1.67900e+03	0.012222	629.5
1680	6.31401e+02	1.68000e+03	0.0122178	630.0
1681	6.31910e+02	1.68100e+03	0.0122145	630.5
1682	6.32394e+02	1.68200e+03	0.0122143	631.0
1683	6.32886e+02	1.68300e+03	0.012216	631.5
1684	6.33387e+02	1.68400e+03	0.0122352	632.0
1685	6.33885e+02	1.68500e+03	0.0122401	632.5
1686	6.34387e+02	1.68600e+03	0.0122417	633.0
1687	6.34884e+02	1.68700e+03	0.0122447	633.5
1688	6.35389e+02	1.68800e+03	0.012251	634.0
1689	6.35877e+02	1.68900e+03	0.012266	634.5
1690	6.36370e+02	1.69000e+03	0.0122835	635.0
1691	6.36885e+02	1.69100e+03	0.0123006	635.5
1692	6.37395e+02	1.69200e+03	0.0123209	636.0
1693	6.37892e+02	1.69300e+03	0.0123198	636.5
1694	6.38391e+02	1.69400e+03	0.0123024	637.0
1695	6.38884e+02	1.69500e+03	0.0122762	637.5
1696	6.39384e+02	1.69600e+03	0.0122063	638.0
1697	6.39880e+02	1.69700e+03	0.0121527	638.5
1698	6.40388e+02	1.69800e+03	0.0121046	639.0
1699	6.40902e+02	1.69900e+03	0.0120592	639.5
1700	6.41422e+02	1.70000e+03	0.0120138	640.0
1701	6.41933e+02	1.70100e+03	0.0119839	640.5
1702	6.42451e+02	1.70200e+03	0.0119626	641.0
1703	6.42962e+02	1.70300e+03	0.0119459	641.5
1704	6.43452e+02	1.70400e+03	0.0119635	642.0
1705	6.43955e+02	1.70500e+03	0.0119637	642.5
1706	6.44457e+02	1.70600e+03	0.0119599	643.0
1707	6.44955e+02	1.70700e+03	0.0119552	643.5
1708	6.45434e+02	1.70800e+03	0.0119465	644.0
1709	6.45910e+02	1.70900e+03	0.0119369	644.5
1710	6.46421e+02	1.71000e+03	0.0119269	645.0
1711	6.46924e+02	1.71100e+03	0.0119167	645.5
1712	6.47419e+02	1.71200e+03	0.0119021	646.0
1713	6.47921e+02	1.71300e+03	0.0118887	646.5
1714	6.48414e+02	1.71400e+03	0.0118733	647.0
1715	6.48928e+02	1.71500e+03	0.0118574	647.5
1716	6.49430e+02	1.71600e+03	0.0118496	648.0
1717	6.49933e+02	1.71700e+03	0.0118475	648.5
1718	6.50443e+02	1.71800e+03	0.011853	649.0
1719	6.50959e+02	1.71900e+03	0.011863	649.5
1720	6.51472e+02	1.72000e+03	0.0118868	650.0
1721	6.51974e+02	1.72100e+03	0.0118978	650.5
1722	6.52489e+02	1.72200e+03	0.0118969	651.0
1723	6.52989e+02	1.72300e+03	0.0118886	651.5
1724	6.53487e+02	1.72400e+03	0.0118637	652.0
1725	6.53999e+02	1.72500e+03	0.0118394	652.5
1726	6.54542e+02	1.72600e+03	0.0118179	653.0
1727	6.55047e+02	1.72700e+03	0.0117993	653.5
1728	6.55554e+02	1.72800e+03	0.0117684	654.0
1729	6.56076e+02	1.72900e+03	0.0117505	654.5
1730	6.56617e+02	1.73000e+03	0.0117355	655.0
1731	6.57181e+02	1.73100e+03	0.0117208	655.5
1732	6.57708e+02	1.73200e+03	0.0117199	656.0
1733	6.58255e+02	1.73300e+03	0.0117078	656.5
1734	6.58834e+02	1.73400e+03	0.0116935	657.0
1735	6.59346e+02	1.73500e+03	0.0116784	657.5
1736	6.59797e+02	1.73600e+03	0.0116446	658.0
1737	6.60302e+02	1.73700e+03	0.0116091	658.5
1738	6.60779e+02	1.73800e+03	0.0115651	659.0
1739	6.61262e+02	1.73900e+03	0.0115147	659.5
1740	6.61772e+02	1.74000e+03	0.0114362	660.0
1741	6.62312e+02	1.74100e+03	0.0113656	660.5
1742	6.62802e+02	1.74200e+03	0.0112996	661.0
1743	6.63242e+02	1.74300e+03	0.0112365	661.5
1744	6.63736e+02	1.74400e+03	0.011183	662.0
1745	6.64212e+02	1.74500e+03	0.0111498	662.5
1746	6.64731e+02	1.74600e+03	0.0111305	663.0
1747	6.65216e+02	1.74700e+03	0.0111194	663.5
1748	6.65685e+02	1.74800e+03	0.0111674	664.0
1749	6.66162e+02	1.74900e+03	0.0111978	664.5
1750	6.66618e+02	1.75000e+03	0.0112329	665.0
1751	6.67099e+02	1.75100e+03	0.0112741	665.5
1752	6.67601e+02	1.75200e+03	0.0113397	666.0
1753	6.68081e+02	1.75300e+03	0.0113944	666.5
1754	6.68560e+02	1.75400e+03	0.0114449	667.0
1755	6.69042e+02	1.75500e+03	0.0114923	667.5
1756	6.69538e+02	1.75600e+03	0.0115271	668.0
1757	6.70037e+02	1.75700e+03	0.0115534	668.5
1758	6.70545e+02	1.75800e+03	0.011574	669.0
1759	6.71029e+02	1.75900e+03	0.0115919	669.5
1760	6.71517e+02	1.76000e+03	0.0115865	670.0
1761	6.72019e+02	1.76100e+03	0.0115964	670.5
1762	6.72492e+02	1.76200e+03	0.0116058	671.0
1763	6.72982e+02	1.76300e+03	0.0116121	671.5
1764	6.73478e+02	1.76400e+03	0.0116105	672.0
1765	6.73988e+02	1.76500e+03	0.0115954	672.5
1766	6.74476e+02	1.76600e+03	0.0115721	673.0
1767	6.74980e+02	1.76700e+03	0.0115455	673.5
1768	6.75482e+02	1.76800e+03	0.0114981	674.0
1769	6.76006e+02	1.76900e+03	0.0114732	674.5
1770	6.76517e+02	1.77000e+03	0.0114577	675.0
1771	6.77031e+02	1.77100e+03	0.0114454	675.5
1772	6.77571e+02	1.77200e+03	0.0114525	676.0
1773	6.78087e+02	1.77300e+03	0.0114506	676.5
1774	6.78583e+02	1.77400e+03	0.0114491	677.0
1775	6.79088e+02	1.77500e+03	0.0114497	677.5
1776	6.79560e+02	1.77600e+03	0.0114557	678.0
1777	6.80053e+02	1.77700e+03	0.0114597	678.5
1778	6.80542e+02	1.77800e+03	0.0114632	679.0
1779	6.81011e+02	1.77900e+03	0.011466	679.5
1780	6.81498e+02	1.78000e+03	0.0114644	680.0
1781	6.81989e+02	1.78100e+03	0.0114605	680.5
1782	6.82462e+02	1.78200e+03	0.0114565	681.0
1783	6.82946e+02	1.78300e+03	0.0114537	681.5
1784	6.83447e+02	1.78400e+03	0.0114545	682.0
1785	6.83937e+02	1.78500e+03	0.0114639	682.5
1786	6.84432e+02	1.78600e+03	0.0114787	683.0
1787	6.84921e+02	1.78700e+03	0.0114963	683.5
1788	6.85394e+02	1.78800e+03	0.0115299	684.0
1789	6.85866e+02	1.78900e+03	0.0115477	684.5
1790	6.86364e+02	1.79000e+03	0.0115567	685.0
1791	6.86853e+02	1.79100e+03	0.011562	685.5
1792	6.87342e+02	1.79200e+03	0.011555	686.0
1793	6.87829e+02	1.79300e+03	0.0115541	686.5
1794	6.88304e+02	1.79400e+03	0.0115552	687.0
1795	6.88524e+02	1.79500e+03	0.011557	687.5
1796	6.88722e+02	1.79600e+03	0.0115574	688.0
1797	6.89039e+02	1.79700e+03	0.0115599	688.5
1798	6.89368e+02	1.79800e+03	0.0115605	689.0
1799	6.89730e+02	1.79900e+03	0.0115583	689.5
1800	6.90091e+02	1.80000e+03	0.0115589	690.0
1801	6.90407e+02	1.80100e+03	0.0115541	690.5
1802	6.90737e+02	1.80200e+03	0.011543	691.0
1803	6.91065e+02	1.80300e+03	0.0115272	691.5
1804	6.91365e+02	1.80400e+03	0.0114992	692.0
1805	6.91659e+02	1.80500e+03	0.0114713	692.5
1806	6.91963e+02	1.80600e+03	0.011438	693.0
1807	6.92236e+02	1.80700e+03	0.0114005	693.5
1808	6.92509e+02	1.80800e+03	0.011353	694.0
1809	6.92765e+02	1.80900e+03	0.011316	694.5
1810	6.93008e+02	1.81000e+03	0.0112868	695.0
1811	6.93248e+02	1.81100e+03	0.0112627	695.5
1812	6.93488e+02	1.81200e+03	0.0112565	696.0
1813	6.93726e+02	1.81300e+03	0.0112525	696.5
1814	6.93935e+02	1.81400e+03	0.0112514	697.0
1815	6.94150e+02	1.81500e+03	0.0112519	697.5
1816	6.94353e+02	1.81600e+03	0.0112738	698.0
1817	6.94559e+02	1.81700e+03	0.0112853	698.5
1818	6.94735e+02	1.81800e+03	0.011299	699.0
1819	6.94918e+02	1.81900e+03	0.0113157	699.5
1820	6.95097e+02	1.82000e+03	0.0113378	700.0
1821	6.95277e+02	1.82100e+03	0.0113651	700.0
1822	6.95432e+02	1.82200e+03	0.0113926	700.0
1823	6.95590e+02	1.82300e+03	0.0114183	700.0
1824	6.95755e+02	1.82400e+03	0.0114433	700.0
1825	6.95915e+02	1.82500e+03	0.0114552	700.0
1826	6.96058e+02	1.82600e+03	0.0114607	700.0
1827	6.96202e+02	1.82700e+03	0.0114632	700.0
1828	6.96340e+02	1.82800e+03	0.0114427	700.0
1829	6.96478e+02	1.82900e+03	0.0114348	700.0
1830	6.96608e+02	1.83000e+03	0.011425	700.0
1831	6.96732e+02	1.83100e+03	0.0114113	700.0
1832	6.96833e+02	1.83200e+03	0.0113874	700.0
1833	6.96963e+02	1.83300e+03	0.0113582	700.0
1834	6.97053e+02	1.83400e+03	0.0113289	700.0
1835	6.97153e+02	1.83500e+03	0.0113017	700.0
1836	6.97246e+02	1.83600e+03	0.0112685	700.0
1837	6.97337e+02	1.83700e+03	0.0112503	700.0
1838	6.97439e+02	1.83800e+03	0.0112373	700.0
1839	6.97536e+02	1.83900e+03	0.0112266	700.0
1840	6.97621e+02	1.84000e+03	0.0112398	700.0
1841	6.97713e+02	1.84100e+03	0.0112418	700.0
1842	6.97805e+02	1.84200e+03	0.0112447	700.0
1843	6.97875e+02	1.84300e+03	0.0112482	700.0
1844	6.97952e+02	1.84400e+03	0.0112539	700.0
1845	6.98036e+02	1.84500e+03	0.0112638	700.0
1846	6.98103e+02	1.84600e+03	0.0112778	700.0
1847	6.98183e+02	1.84700e+03	0.0112946	700.0
1848	6.98245e+02	1.84800e+03	0.0113157	700.0
1849	6.98320e+02	1.84900e+03	0.0113301	700.0
1850	6.98376e+02	1.85000e+03	0.0113429	700.0
1851	6.98444e+02	1.85100e+03	0.0113553	700.0
1852	6.98519e+02	1.85200e+03	0.0113614	700.0
1853	6.98561e+02	1.85300e+03	0.0113685	700.0
1854	6.98613e+02	1.85400e+03	0.0113728	700.0
1855	6.98657e+02	1.85500e+03	0.0113735	700.0
1856	6.98688e+02	1.85600e+03	0.011357	700.0
1857	6.98740e+02	1.85700e+03	0.0113383	700.0
1858	6.98786e+02	1.85800e+03	0.0113153	700.0
1859	6.98827e+02	1.85900e+03	0.0112896	700.0
1860	6.98891e+02	1.86000e+03	0.0112489	700.0
1861	6.98945e+02	1.86100e+03	0.0112223	700.0
1862	6.99003e+02	1.86200e+03	0.0112011	700.0
1863	6.99055e+02	1.86300e+03	0.0111822	700.0
1864	6.99104e+02	1.86400e+03	0.0111703	700.0
1865	6.99153e+02	1.86500e+03	0.0111505	700.0
1866	6.99192e+02	1.86600e+03	0.0111277	700.0
1867	6.99228e+02	1.86700e+03	0.0111026	700.0
1868	6.99267e+02	1.86800e+03	0.0110693	700.0
1869	6.99308e+02	1.86900e+03	0.0110428	700.0
1870	6.99346e+02	1.87000e+03	0.0110225	700.0
1871	6.99387e+02	1.87100e+03	0.0110056	700.0
1872	6.99422e+02	1.87200e+03	0.0109925	700.0
1873	6.99463e+02	1.87300e+03	0.0109782	700.0
1874	6.99491e+02	1.87400e+03	0.0109623	700.0
1875	6.99519e+02	1.87500e+03	0.0109459	700.0
1876	6.99558e+02	1.87600e+03	0.0109392	700.0
1877	6.99593e+02	1.87700e+03	0.0109317	700.0
1878	6.99638e+02	1.87800e+03	0.0109271	700.0
1879	6.99666e+02	1.87900e+03	0.0109253	700.0
1880	6.99701e+02	1.88000e+03	0.0109348	700.0
1881	6.99726e+02	1.88100e+03	0.0109454	700.0
1882	6.99771e+02	1.88200e+03	0.0109586	700.0
1883	6.99793e+02	1.88300e+03	0.0109735	700.0
1884	6.99817e+02	1.88400e+03	0.0110004	700.0
1885	6.99856e+02	1.88500e+03	0.0110193	700.0
1886	6.99879e+02	1.88600e+03	0.0110359	700.0
1887	6.99899e+02	1.88700e+03	0.0110517	700.0
1888	6.99933e+02	1.88800e+03	0.0110586	700.0
1889	6.99951e+02	1.88900e+03	0.0110615	700.0
1890	6.99981e+02	1.89000e+03	0.0110579	700.0
1891	7.00009e+02	1.89100e+03	0.0110495	700.0
1892	7.00034e+02	1.89200e+03	0.0110227	700.0
1893	7.00058e+02	1.89300e+03	0.0110026	700.0
1894	7.00077e+02	1.89400e+03	0.0109848	700.0
1895	7.00106e+02	1.89500e+03	0.0109686	700.0
1896	7.00120e+02	1.89600e+03	0.0109554	700.0
1897	7.00145e+02	1.89700e+03	0.0109508	700.0
1898	7.00171e+02	1.89800e+03	0.0109499	700.0
1899	7.00206e+02	1.89900e+03	0.0109507	700.0
1900	7.00210e+02	1.90000e+03	0.0109703	700.0
1901	7.00239e+02	1.90100e+03	0.010979	700.0
1902	7.00266e+02	1.90200e+03	0.0109863	700.0
1903	7.00279e+02	1.90300e+03	0.010995	700.0
1904	7.00300e+02	1.90400e+03	0.0110065	700.0
1905	7.00313e+02	1.90500e+03	0.0110193	700.0
1906	7.00328e+02	1.90600e+03	0.0110289	700.0
1907	7.00362e+02	1.90700e+03	0.0110349	700.0
1908	7.00375e+02	1.90800e+03	0.0110398	700.0
1909	7.00382e+02	1.90900e+03	0.01104	700.0
1910	7.00404e+02	1.91000e+03	0.0110382	700.0
1911	7.00427e+02	1.91100e+03	0.0110355	700.0
1912	7.00442e+02	1.91200e+03	0.0110254	700.0
1913	7.00452e+02	1.91300e+03	0.0110259	700.0
1914	7.00464e+02	1.91400e+03	0.011029	700.0
1915	7.00486e+02	1.91500e+03	0.0110319	700.0
1916	7.00504e+02	1.91600e+03	0.011041	700.0
1917	7.00520e+02	1.91700e+03	0.0110417	700.0
1918	7.00534e+02	1.91800e+03	0.0110384	700.0
1919	7.00545e+02	1.91900e+03	0.011033	700.0
1920	7.00562e+02	1.92000e+03	0.0110149	700.0
1921	7.00581e+02	1.92100e+03	0.0110009	700.0
1922	7.00583e+02	1.92200e+03	0.010987	700.0
1923	7.00607e+02	1.92300e+03	0.0109727	700.0
1924	7.00617e+02	1.92400e+03	0.0109565	700.0
1925	7.00631e+02	1.92500e+03	0.0109444	700.0
1926	7.00643e+02	1.92600e+03	0.010935	700.0
1927	7.00651e+02	1.92700e+03	0.0109273	700.0
1928	7.00671e+02	1.92800e+03	0.0109291	700.0
1929	7.00678e+02	1.92900e+03	0.0109298	700.0
1930	7.00689e+02	1.93000e+03	0.0109315	700.0
1931	7.00696e+02	1.93100e+03	0.0109341	700.0
1932	7.00698e+02	1.93200e+03	0.0109424	700.0
1933	7.00720e+02	1.93300e+03	0.0109464	700.0
1934	7.00725e+02	1.93400e+03	0.0109488	700.0
1935	7.00745e+02	1.93500e+03	0.0109504	700.0
1936	7.00750e+02	1.93600e+03	0.0109468	700.0
1937	7.00763e+02	1.93700e+03	0.0109434	700.0
1938	7.00769e+02	1.93800e+03	0.0109389	700.0
1939	7.00786e+02	1.93900e+03	0.0109335	700.0
1940	7.00790e+02	1.94000e+03	0.0109223	700.0
1941	7.00796e+02	1.94100e+03	0.010913	700.0
1942	7.00809e+02	1.94200e+03	0.0109034	700.0
1943	7.00823e+02	1.94300e+03	0.0108933	700.0
1944	7.00821e+02	1.94400e+03	0.0108807	700.0
1945	7.00836e+02	1.94500e+03	0.0108691	700.0
1946	7.00853e+02	1.94600e+03	0.0108579	700.0
1947	7.00862e+02	1.94700e+03	0.0108469	700.0
1948	7.00864e+02	1.94800e+03	0.010837	700.0
1949	7.00871e+02	1.94900e+03	0.0108285	700.0
1950	7.00878e+02	1.95000e+03	0.010821	700.0
1951	7.00887e+02	1.95100e+03	0.0108143	700.0
1952	7.00900e+02	1.95200e+03	0.0108128	700.0
1953	7.00900e+02	1.95300e+03	0.010811	700.0
1954	7.00911e+02	1.95400e+03	0.0108116	700.0
1955	7.00921e+02	1.95500e+03	0.0108157	700.0
1956	7.00926e+02	1.95600e+03	0.0108336	700.0
1957	7.00923e+02	1.95700e+03	0.0108508	700.0
1958	7.00941e+02	1.95800e+03	0.0108688	700.0
1959	7.00942e+02	1.95900e+03	0.0108874	700.0
1960	7.00953e+02	1.96000e+03	0.0109155	700.0
1961	7.00945e+02	1.96100e+03	0.0109334	700.0
1962	7.00964e+02	1.96200e+03	0.0109464	700.0
1963	7.00964e+02	1.96300e+03	0.0109566	700.0
1964	7.00980e+02	1.96400e+03	0.0109489	700.0
1965	7.00975e+02	1.96500e+03	0.0109427	700.0
1966	7.00977e+02	1.96600e+03	0.010933	700.0
1967	7.00986e+02	1.96700e+03	0.0109204	700.0
1968	7.01001e+02	1.96800e+03	0.0108913	700.0
1969	7.01003e+02	1.96900e+03	0.0108689	700.0
1970	7.01003e+02	1.97000e+03	0.0108477	700.0
1971	7.01010e+02	1.97100e+03	0.0108267	700.0
1972	7.01018e+02	1.97200e+03	0.0108046	700.0
1973	7.01025e+02	1.97300e+03	0.0107853	700.0
1974	7.01022e+02	1.97400e+03	0.0107672	700.0
1975	7.01032e+02	1.97500e+03	0.0107499	700.0
1976	7.01042e+02	1.97600e+03	0.0107379	700.0
1977	7.01043e+02	1.97700e+03	0.0107241	700.0
1978	7.01051e+02	1.97800e+03	0.0107111	700.0
1979	7.01052e+02	1.97900e+03	0.0106988	700.0
1980	7.01058e+02	1.98000e+03	0.0106899	700.0
1981	7.01062e+02	1.98100e+03	0.0106803	700.0
1982	7.01058e+02	1.98200e+03	0.0106703	700.0
1983	7.01070e+02	1.98300e+03	0.01066	700.0
1984	7.01067e+02	1.98400e+03	0.010649	700.0
1985	7.01074e+02	1.98500e+03	0.0106354	700.0
1986	7.01079e+02	1.98600e+03	0.0106206	700.0
1987	7.01077e+02	1.98700e+03	0.0106053	700.0
1988	7.01090e+02	1.98800e+03	0.0105856	700.0
1989	7.01090e+02	1.98900e+03	0.0105698	700.0
1990	7.01093e+02	1.99000e+03	0.0105555	700.0
1991	7.01102e+02	1.99100e+03	0.0105421	700.0
1992	7.01099e+02	1.99200e+03	0.0105339	700.0
1993	7.01097e+02	1.99300e+03	0.0105254	700.0
1994	7.01104e+02	1.99400e+03	0.010518	700.0
1995	7.01119e+02	1.99500e+03	0.0105114	700.0
1996	7.01121e+02	1.99600e+03	0.0105101	700.0
1997	7.01117e+02	1.99700e+03	0.0105072	700.0
1998	7.01121e+02	1.99800e+03	0.0105046	700.0
1999	7.01128e+02	1.99900e+03	0.0105024	700.0
2000	7.01130e+02	2.00000e+03	0.0105025	700.0
2001	7.01124e+02	2.00100e+03	0.0105023	700.0
2002	7.01125e+02	2.00200e+03	0.0105048	700.0
2003	7.01134e+02	2.00300e+03	0.0105104	700.0
2004	7.01139e+02	2.00400e+03	0.0105226	700.0
2005	7.01136e+02	2.00500e+03	0.0105332	700.0
2006	7.01142e+02	2.00600e+03	0.0105427	700.0
2007	7.01139e+02	2.00700e+03	0.0105512	700.0
2008	7.01155e+02	2.00800e+03	0.0105614	700.0
2009	7.01155e+02	2.00900e+03	0.0105661	700.0
2010	7.01150e+02	2.01000e+03	0.0105682	700.0
2011	7.01162e+02	2.01100e+03	0.0105691	700.0
2012	7.01155e+02	2.01200e+03	0.0105608	700.0
2013	7.01164e+02	2.01300e+03	0.010558	700.0
2014	7.01160e+02	2.01400e+03	0.0105561	700.0
2015	7.01159e+02	2.01500e+03	0.0105543	700.0
2016	7.01161e+02	2.01600e+03	0.0105505	700.0
2017	7.01161e+02	2.01700e+03	0.0105418	700.0
2018	7.01165e+02	2.01800e+03	0.0105298	700.0
2019	7.01162e+02	2.01900e+03	0.0105169	700.0
2020	7.01171e+02	2.02000e+03	0.0104967	700.0
2021	7.01176e+02	2.02100e+03	0.0104839	700.0
2022	7.01178e+02	2.02200e+03	0.0104742	700.0
2023	7.01179e+02	2.02300e+03	0.0104645	700.0
2024	7.01186e+02	2.02400e+03	0.0104578	700.0
2025	7.01181e+02	2.02500e+03	0.0104528	700.0
2026	7.01187e+02	2.02600e+03	0.0104504	700.0
2027	7.01178e+02	2.02700e+03	0.0104493	700.0
2028	7.01182e+02	2.02800e+03	0.0104577	700.0
2029	7.01191e+02	2.02900e+03	0.010465	700.0
2030	7.01199e+02	2.03000e+03	0.0104717	700.0
2031	7.01195e+02	2.03100e+03	0.010478	700.0
2032	7.01196e+02	2.03200e+03	0.0104897	700.0
2033	7.01200e+02	2.03300e+03	0.0104944	700.0
2034	7.01212e+02	2.03400e+03	0.0104927	700.0
2035	7.01200e+02	2.03500e+03	0.0104868	700.0
2036	7.01212e+02	2.03600e+03	0.0104708	700.0
2037	7.01213e+02	2.03700e+03	0.0104592	700.0
2038	7.01211e+02	2.03800e+03	0.0104483	700.0
2039	7.01213e+02	2.03900e+03	0.0104376	700.0
2040	7.01211e+02	2.04000e+03	0.0104233	700.0
2041	7.01205e+02	2.04100e+03	0.0104118	700.0
2042	7.01225e+02	2.04200e+03	0.010401	700.0
2043	7.01218e+02	2.04300e+03	0.0103903	700.0
2044	7.01217e+02	2.04400e+03	0.0103815	700.0
2045	7.01223e+02	2.04500e+03	0.010371	700.0
2046	7.01229e+02	2.04600e+03	0.0103603	700.0
2047	7.01226e+02	2.04700e+03	0.0103495	700.0
2048	7.01217e+02	2.04800e+03	0.0103362	700.0
2049	7.01222e+02	2.04900e+03	0.0103196	700.0
2050	7.01228e+02	2.05000e+03	0.0102984	700.0
2051	7.01222e+02	2.05100e+03	0.0102745	700.0
2052	7.01227e+02	2.05200e+03	0.0102387	700.0
2053	7.01239e+02	2.05300e+03	0.0102066	700.0
2054	7.01237e+02	2.05400e+03	0.0101809	700.0
2055	7.01238e+02	2.05500e+03	0.0101604	700.0
2056	7.01232e+02	2.05600e+03	0.0101474	700.0
2057	7.01237e+02	2.05700e+03	0.0101422	700.0
2058	7.01245e+02	2.05800e+03	0.0101413	700.0
2059	7.01247e+02	2.05900e+03	0.0101424	700.0
2060	7.01245e+02	2.06000e+03	0.0101681	700.0
2061	7.01248e+02	2.06100e+03	0.010179	700.0
2062	7.01250e+02	2.06200e+03	0.0101866	700.0
2063	7.01244e+02	2.06300e+03	0.0101933	700.0
2064	7.01244e+02	2.06400e+03	0.0101918	700.0
2065	7.01252e+02	2.06500e+03	0.0101918	700.0
2066	7.01251e+02	2.06600e+03	0.0101904	700.0
2067	7.01250e+02	2.06700e+03	0.0101878	700.0
2068	7.01250e+02	2.06800e+03	0.0101781	700.0
2069	7.01261e+02	2.06900e+03	0.0101693	700.0
2070	7.01262e+02	2.07000e+03	0.0101592	700.0
2071	7.01254e+02	2.07100e+03	0.0101479	700.0
2072	7.01246e+02	2.07200e+03	0.0101295	700.0
2073	7.01257e+02	2.07300e+03	0.010112	700.0
2074	7.01264e+02	2.07400e+03	0.0100918	700.0
2075	7.01261e+02	2.07500e+03	0.0100678	700.0
2076	7.01260e+02	2.07600e+03	0.0100289	700.0
2077	7.01272e+02	2.07700e+03	0.00999128	700.0
2078	7.01268e+02	2.07800e+03	0.00995357	700.0
2079	7.01266e+02	2.07900e+03	0.00991582	700.0
2080	7.01272e+02	2.08000e+03	0.00987845	700.0
2081	7.01269e+02	2.08100e+03	0.00985599	700.0
2082	7.01264e+02	2.08200e+03	0.00984128	700.0
2083	7.01265e+02	2.08300e+03	0.00983078	700.0
2084	7.01272e+02	2.08400e+03	0.00985154	700.0
2085	7.01273e+02	2.08500e+03	0.00986152	700.0
2086	7.01269e+02	2.08600e+03	0.00987397	700.0
2087	7.01274e+02	2.08700e+03	0.00989039	700.0
2088	7.01270e+02	2.08800e+03	0.0099167	700.0
2089	7.01267e+02	2.08900e+03	0.00993642	700.0
2090	7.01268e+02	2.09000e+03	0.00995338	700.0
2091	7.01269e+02	2.09100e+03	0.00996896	700.0
2092	7.01271e+02	2.09200e+03	0.00997487	700.0
2093	7.01276e+02	2.09300e+03	0.00997339	700.0
2094	7.01285e+02	2.09400e+03	0.00996529	700.0
2095	7.01277e+02	2.09500e+03	0.0099538	700.0
2096	7.01276e+02	2.09600e+03	0.00992746	700.0
2097	7.01280e+02	2.09700e+03	0.009915	700.0
2098	7.01282e+02	2.09800e+03	0.00990647	700.0
2099	7.01284e+02	2.09900e+03	0.00989912	700.0
2100	7.01275e+02	2.10000e+03	0.00990123	700.0
2101	7.01275e+02	2.10100e+03	0.00989847	700.0
2102	7.01275e+02	2.10200e+03	0.00989306	700.0
2103	7.01290e+02	2.10300e+03	0.00988591	700.0
2104	7.01285e+02	2.10400e+03	0.00987182	700.0
2105	7.01287e+02	2.10500e+03	0.00985433	700.0
2106	7.01289e+02	2.10600e+03	0.0098343	700.0
2107	7.01286e+02	2.10700e+03	0.00981294	700.0
2108	7.01283e+02	2.10800e+03	0.00978083	700.0
2109	7.01285e+02	2.10900e+03	0.00975762	700.0
2110	7.01287e+02	2.11000e+03	0.00973785	700.0
2111	7.01295e+02	2.11100e+03	0.00971971	700.0
2112	7.01292e+02	2.11200e+03	0.00971401	700.0
2113	7.01294e+02	2.11300e+03	0.00971154	700.0
2114	7.01295e+02	2.11400e+03	0.00971468	700.0
2115	7.01294e+02	2.11500e+03	0.00972015	700.0
2116	7.01288e+02	2.11600e+03	0.00973932	700.0
2117	7.01283e+02	2.11700e+03	0.00975096	700.0
2118	7.01300e+02	2.11800e+03	0.00976023	700.0
2119	7.01298e+02	2.11900e+03	0.00976839	700.0
2120	7.01293e+02	2.12000e+03	0.00977248	700.0
2121	7.01293e+02	2.12100e+03	0.00977445	700.0
2122	7.01296e+02	2.12200e+03	0.0097741	700.0
2123	7.01295e+02	2.12300e+03	0.00977226	700.0
2124	7.01295e+02	2.12400e+03	0.0097597	700.0
2125	7.01291e+02	2.12500e+03	0.00974691	700.0
2126	7.01292e+02	2.12600e+03	0.00972913	700.0
2127	7.01298e+02	2.12700e+03	0.00970831	700.0
2128	7.01300e+02	2.12800e+03	0.00967771	700.0
2129	7.01303e+02	2.12900e+03	0.00965486	700.0
2130	7.01312e+02	2.13000e+03	0.00963749	700.0
2131	7.01305e+02	2.13100e+03	0.00962248	700.0
2132	7.01300e+02	2.13200e+03	0.00961361	700.0
2133	7.01301e+02	2.13300e+03	0.00960734	700.0
2134	7.01299e+02	2.13400e+03	0.00960088	700.0
2135	7.01303e+02	2.13500e+03	0.00959348	700.0
2136	7.01298e+02	2.13600e+03	0.00959969	700.0
2137	7.01302e+02	2.13700e+03	0.00959998	700.0
2138	7.01308e+02	2.13800e+03	0.00959912	700.0
2139	7.01305e+02	2.13900e+03	0.00959812	700.0
2140	7.01313e+02	2.14000e+03	0.00959183	700.0
2141	7.01302e+02	2.14100e+03	0.00958461	700.0
2142	7.01311e+02	2.14200e+03	0.00957532	700.0
2143	7.01316e+02	2.14300e+03	0.00956432	700.0
2144	7.01309e+02	2.14400e+03	0.0095424	700.0
2145	7.01300e+02	2.14500e+03	0.00952067	700.0
2146	7.01313e+02	2.14600e+03	0.00949593	700.0
2147	7.01309e+02	2.14700e+03	0.00946887	700.0
2148	7.01313e+02	2.14800e+03	0.00943018	700.0
2149	7.01312e+02	2.14900e+03	0.00939646	700.0
2150	7.01309e+02	2.15000e+03	0.00936484	700.0
2151	7.01308e+02	2.15100e+03	0.00933445	700.0
2152	7.01312e+02	2.15200e+03	0.00931189	700.0
2153	7.01311e+02	2.15300e+03	0.00929865	700.0
2154	7.01316e+02	2.15400e+03	0.00929355	700.0
2155	7.01313e+02	2.15500e+03	0.00929312	700.0
2156	7.01308e+02	2.15600e+03	0.00932121	700.0
2157	7.01321e+02	2.15700e+03	0.00933967	700.0
2158	7.01324e+02	2.15800e+03	0.00935734	700.0
2159	7.01310e+02	2.15900e+03	0.00937566	700.0
2160	7.01321e+02	2.16000e+03	0.0094034	700.0
2161	7.01325e+02	2.16100e+03	0.0094254	700.0
2162	7.01313e+02	2.16200e+03	0.0094463	700.0
2163	7.01312e+02	2.16300e+03	0.00946768	700.0
2164	7.01311e+02	2.16400e+03	0.00949294	700.0
2165	7.01325e+02	2.16500e+03	0.00952134	700.0
2166	7.01318e+02	2.16600e+03	0.00954962	700.0
2167	7.01323e+02	2.16700e+03	0.00957731	700.0
2168	7.01320e+02	2.16800e+03	0.00960852	700.0
2169	7.01323e+02	2.16900e+03	0.00963218	700.0
2170	7.01320e+02	2.17000e+03	0.00965128	700.0
2171	7.01324e+02	2.17100e+03	0.00966767	700.0
2172	7.01325e+02	2.17200e+03	0.00966651	700.0
2173	7.01318e+02	2.17300e+03	0.00966777	700.0
2174	7.01319e+02	2.17400e+03	0.00966601	700.0
2175	7.01315e+02	2.17500e+03	0.00966158	700.0
2176	7.01324e+02	2.17600e+03	0.0096411	700.0
2177	7.01316e+02	2.17700e+03	0.00962435	700.0
2178	7.01308e+02	2.17800e+03	0.00960632	700.0
2179	7.01313e+02	2.17900e+03	0.00958686	700.0
2180	7.01317e+02	2.18000e+03	0.00955983	700.0
2181	7.01327e+02	2.18100e+03	0.00953726	700.0
2182	7.01319e+02	2.18200e+03	0.00951604	700.0
2183	7.01314e+02	2.18300e+03	0.00949537	700.0
2184	7.01322e+02	2.18400e+03	0.00947785	700.0
2185	7.01316e+02	2.18500e+03	0.0094586	700.0
2186	7.01307e+02	2.18600e+03	0.00943673	700.0
2187	7.01311e+02	2.18700e+03	0.00941363	700.0
2188	7.01316e+02	2.18800e+03	0.00939358	700.0
2189	7.01308e+02	2.18900e+03	0.00937445	700.0
2190	7.01307e+02	2.19000e+03	0.00935713	700.0
2191	7.01320e+02	2.19100e+03	0.00934125	700.0
2192	7.01313e+02	2.19200e+03	0.00933058	700.0
2193	7.01309e+02	2.19300e+03	0.00932068	700.0
2194	7.01317e+02	2.19400e+03	0.00931249	700.0
2195	7.01319e+02	2.19500e+03	0.00930553	700.0
2196	7.01311e+02	2.19600e+03	0.00930642	700.0
2197	7.01315e+02	2.19700e+03	0.00930437	700.0
2198	7.01322e+02	2.19800e+03	0.00930237	700.0
2199	7.01322e+02	2.19900e+03	0.00930078	700.0
2200	7.01313e+02	2.20000e+03	0.0093012	700.0
2201	7.01310e+02	2.20100e+03	0.00930083	700.0
2202	7.01314e+02	2.20200e+03	0.00930154	700.0
2203	7.01321e+02	2.20300e+03	0.00930457	700.0
2204	7.01315e+02	2.20400e+03	0.00931541	700.0
2205	7.01315e+02	2.20500e+03	0.00932636	700.0
2206	7.01310e+02	2.20600e+03	0.00933734	700.0
2207	7.01323e+02	2.20700e+03	0.0093483	700.0
2208	7.01322e+02	2.20800e+03	0.00936393	700.0
2209	7.01329e+02	2.20900e+03	0.00936874	700.0
2210	7.01327e+02	2.21000e+03	0.00936735	700.0
2211	7.01318e+02	2.21100e+03	0.00936396	700.0
2212	7.01325e+02	2.21200e+03	0.00934613	700.0
2213	7.01312e+02	2.21300e+03	0.00933411	700.0
2214	7.01320e+02	2.21400e+03	0.00932239	700.0
2215	7.01320e+02	2.21500e+03	0.00931027	700.0
2216	7.01319e+02	2.21600e+03	0.00929447	700.0
2217	7.01320e+02	2.21700e+03	0.00928065	700.0
2218	7.01320e+02	2.21800e+03	0.0092676	700.0
2219	7.01322e+02	2.21900e+03	0.00925489	700.0
2220	7.01315e+02	2.22000e+03	0.00924453	700.0
2221	7.01316e+02	2.22100e+03	0.00923488	700.0
2222	7.01323e+02	2.22200e+03	0.00922688	700.0
2223	7.01324e+02	2.22300e+03	0.00922077	700.0
2224	7.01319e+02	2.22400e+03	0.00922659	700.0
2225	7.01319e+02	2.22500e+03	0.00923281	700.0
2226	7.01323e+02	2.22600e+03	0.00923937	700.0
2227	7.01309e+02	2.22700e+03	0.00924599	700.0
2228	7.01325e+02	2.22800e+03	0.00926022	700.0
2229	7.01319e+02	2.22900e+03	0.00926671	700.0
2230	7.01322e+02	2.23000e+03	0.00927204	700.0
2231	7.01322e+02	2.23100e+03	0.00927874	700.0
2232	7.01309e+02	2.23200e+03	0.00928074	700.0
2233	7.01309e+02	2.23300e+03	0.00928417	700.0
2234	7.01315e+02	2.23400e+03	0.00928202	700.0
2235	7.01316e+02	2.23500e+03	0.0092744	700.0
2236	7.01309e+02	2.23600e+03	0.00925519	700.0
2237	7.01318e+02	2.23700e+03	0.00923101	700.0
2238	7.01313e+02	2.23800e+03	0.00920361	700.0
2239	7.01313e+02	2.23900e+03	0.00917448	700.0
2240	7.01316e+02	2.24000e+03	0.00912411	700.0
2241	7.01309e+02	2.24100e+03	0.00908741	700.0
2242	7.01307e+02	2.24200e+03	0.00905481	700.0
2243	7.01318e+02	2.24300e+03	0.00902369	700.0
2244	7.01313e+02	2.24400e+03	0.00900246	700.0
2245	7.01311e+02	2.24500e+03	0.00897908	700.0
2246	7.01310e+02	2.24600e+03	0.00895667	700.0
2247	7.01306e+02	2.24700e+03	0.00893526	700.0
2248	7.01307e+02	2.24800e+03	0.00892023	700.0
2249	7.01302e+02	2.24900e+03	0.00890298	700.0
2250	7.01302e+02	2.25000e+03	0.00888618	700.0
2251	7.01309e+02	2.25100e+03	0.0088701	700.0
2252	7.01307e+02	2.25200e+03	0.00885744	700.0
2253	7.01309e+02	2.25300e+03	0.00884458	700.0
2254	7.01309e+02	2.25400e+03	0.00883202	700.0
2255	7.01307e+02	2.25500e+03	0.00881968	700.0
2256	7.01303e+02	2.25600e+03	0.00880989	700.0
2257	7.01314e+02	2.25700e+03	0.00879852	700.0
2258	7.01310e+02	2.25800e+03	0.00878713	700.0
2259	7.01310e+02	2.25900e+03	0.00877608	700.0
2260	7.01307e+02	2.26000e+03	0.00876672	700.0
2261	7.01306e+02	2.26100e+03	0.00875927	700.0
2262	7.01304e+02	2.26200e+03	0.00875373	700.0
2263	7.01300e+02	2.26300e+03	0.0087495	700.0
2264	7.01302e+02	2.26400e+03	0.00875639	700.0
2265	7.01312e+02	2.26500e+03	0.00876615	700.0
2266	7.01302e+02	2.26600e+03	0.00877965	700.0
2267	7.01306e+02	2.26700e+03	0.00879449	700.0
2268	7.01300e+02	2.26800e+03	0.00881826	700.0
2269	7.01308e+02	2.26900e+03	0.00883313	700.0
2270	7.01306e+02	2.27000e+03	0.0088433	700.0
2271	7.01298e+02	2.27100e+03	0.00885065	700.0
2272	7.01302e+02	2.27200e+03	0.00884852	700.0
2273	7.01294e+02	2.27300e+03	0.00884934	700.0
2274	7.01300e+02	2.27400e+03	0.00884783	700.0
2275	7.01295e+02	2.27500e+03	0.00884386	700.0
2276	7.01297e+02	2.27600e+03	0.00882804	700.0
2277	7.01292e+02	2.27700e+03	0.00880942	700.0
2278	7.01290e+02	2.27800e+03	0.0087859	700.0
2279	7.01293e+02	2.27900e+03	0.00876062	700.0
2280	7.01298e+02	2.28000e+03	0.00872605	700.0
2281	7.01295e+02	2.28100e+03	0.00870027	700.0
2282	7.01297e+02	2.28200e+03	0.0086788	700.0
2283	7.01287e+02	2.28300e+03	0.00865979	700.0
2284	7.01288e+02	2.28400e+03	0.00865301	700.0
2285	7.01293e+02	2.28500e+03	0.0086462	700.0
2286	7.01299e+02	2.28600e+03	0.00864248	700.0
2287	7.01294e+02	2.28700e+03	0.00864147	700.0
2288	7.01297e+02	2.28800e+03	0.00865989	700.0
2289	7.01292e+02	2.28900e+03	0.00867427	700.0
2290	7.01294e+02	2.29000e+03	0.00868765	700.0
2291	7.01295e+02	2.29100e+03	0.00870066	700.0
2292	7.01294e+02	2.29200e+03	0.00871764	700.0
2293	7.01297e+02	2.29300e+03	0.00872692	700.0
2294	7.01290e+02	2.29400e+03	0.00873244	700.0
2295	7.01291e+02	2.29500e+03	0.00873608	700.0
2296	7.01294e+02	2.29600e+03	0.00872721	700.0
2297	7.01291e+02	2.29700e+03	0.00872451	700.0
2298	7.01289e+02	2.29800e+03	0.00872541	700.0
2299	7.01292e+02	2.29900e+03	0.00872958	700.0
2300	7.01294e+02	2.30000e+03	0.00874104	700.0
2301	7.01292e+02	2.30100e+03	0.00875357	700.0
2302	7.01287e+02	2.30200e+03	0.00876736	700.0
2303	7.01290e+02	2.30300e+03	0.00878188	700.0
2304	7.01287e+02	2.30400e+03	0.0088071	700.0
2305	7.01286e+02	2.30500e+03	0.00882555	700.0
2306	7.01279e+02	2.30600e+03	0.00884411	700.0
2307	7.01289e+02	2.30700e+03	0.0088646	700.0
2308	7.01281e+02	2.30800e+03	0.00888231	700.0
2309	7.01287e+02	2.30900e+03	0.00889855	700.0
2310	7.01282e+02	2.31000e+03	0.00891107	700.0
2311	7.01287e+02	2.31100e+03	0.00892066	700.0
2312	7.01287e+02	2.31200e+03	0.00891917	700.0
2313	7.01279e+02	2.31300e+03	0.0089139	700.0
2314	7.01285e+02	2.31400e+03	0.00890401	700.0
2315	7.01296e+02	2.31500e+03	0.00889111	700.0
2316	7.01292e+02	2.31600e+03	0.00885842	700.0
2317	7.01288e+02	2.31700e+03	0.00883491	700.0
2318	7.01285e+02	2.31800e+03	0.00881301	700.0
2319	7.01286e+02	2.31900e+03	0.00879131	700.0
2320	7.01289e+02	2.32000e+03	0.0087718	700.0
2321	7.01289e+02	2.32100e+03	0.00875491	700.0
2322	7.01282e+02	2.32200e+03	0.00874058	700.0
2323	7.01285e+02	2.32300e+03	0.00872825	700.0
2324	7.01281e+02	2.32400e+03	0.00873303	700.0
2325	7.01279e+02	2.32500e+03	0.0087386	700.0
2326	7.01290e+02	2.32600e+03	0.00874655	700.0
2327	7.01285e+02	2.32700e+03	0.00875624	700.0
2328	7.01288e+02	2.32800e+03	0.00878104	700.0
2329	7.01279e+02	2.32900e+03	0.00879613	700.0
2330	7.01281e+02	2.33000e+03	0.00880692	700.0
2331	7.01276e+02	2.33100e+03	0.00881534	700.0
2332	7.01273e+02	2.33200e+03	0.00881165	700.0
2333	7.01278e+02	2.33300e+03	0.00880603	700.0
2334	7.01278e+02	2.33400e+03	0.00879651	700.0
2335	7.01277e+02	2.33500e+03	0.00878428	700.0
2336	7.01274e+02	2.33600e+03	0.00875476	700.0
2337	7.01272e+02	2.33700e+03	0.00873269	700.0
2338	7.01275e+02	2.33800e+03	0.00871181	700.0
2339	7.01272e+02	2.33900e+03	0.00869099	700.0
2340	7.01281e+02	2.34000e+03	0.00867128	700.0
2341	7.01275e+02	2.34100e+03	0.00865458	700.0
2342	7.01272e+02	2.34200e+03	0.00863995	700.0
2343	7.01279e+02	2.34300e+03	0.00862645	700.0
2344	7.01274e+02	2.34400e+03	0.00862008	700.0
2345	7.01268e+02	2.34500e+03	0.00861042	700.0
2346	7.01272e+02	2.34600e+03	0.00860085	700.0
2347	7.01267e+02	2.34700e+03	0.00859244	700.0
2348	7.01274e+02	2.34800e+03	0.00859176	700.0
2349	7.01273e+02	2.34900e+03	0.00859311	700.0
2350	7.01271e+02	2.35000e+03	0.00859598	700.0
2351	7.01277e+02	2.35100e+03	0.00859983	700.0
2352	7.01270e+02	2.35200e+03	0.00861344	700.0
2353	7.01272e+02	2.35300e+03	0.00862	700.0
2354	7.01267e+02	2.35400e+03	0.00862298	700.0
2355	7.01273e+02	2.35500e+03	0.00862406	700.0
2356	7.01278e+02	2.35600e+03	0.00861938	700.0
2357	7.01277e+02	2.35700e+03	0.00861753	700.0
2358	7.01264e+02	2.35800e+03	0.00861788	700.0
2359	7.01272e+02	2.35900e+03	0.00861973	700.0
2360	7.01269e+02	2.36000e+03	0.00862667	700.0
2361	7.01273e+02	2.36100e+03	0.00863722	700.0
2362	7.01272e+02	2.36200e+03	0.00864979	700.0
2363	7.01277e+02	2.36300e+03	0.00866328	700.0
2364	7.01259e+02	2.36400e+03	0.00868494	700.0
2365	7.01267e+02	2.36500e+03	0.00869998	700.0
2366	7.01271e+02	2.36600e+03	0.00871691	700.0
2367	7.01268e+02	2.36700e+03	0.00873617	700.0
2368	7.01265e+02	2.36800e+03	0.00875101	700.0
2369	7.01265e+02	2.36900e+03	0.00876779	700.0
2370	7.01267e+02	2.37000e+03	0.00878342	700.0
2371	7.01261e+02	2.37100e+03	0.00879762	700.0
2372	7.01261e+02	2.37200e+03	0.00880853	700.0
2373	7.01270e+02	2.37300e+03	0.00881395	700.0
2374	7.01259e+02	2.37400e+03	0.00881448	700.0
2375	7.01268e+02	2.37500e+03	0.00881183	700.0
2376	7.01263e+02	2.37600e+03	0.00878917	700.0
2377	7.01258e+02	2.37700e+03	0.00876793	700.0
2378	7.01255e+02	2.37800e+03	0.00874144	700.0
2379	7.01259e+02	2.37900e+03	0.00871162	700.0
2380	7.01258e+02	2.38000e+03	0.008668	700.0
2381	7.01260e+02	2.38100e+03	0.00863476	700.0
2382	7.01265e+02	2.38200e+03	0.00860511	700.0
2383	7.01260e+02	2.38300e+03	0.00857545	700.0
2384	7.01250e+02	2.38400e+03	0.00854786	700.0
2385	7.01253e+02	2.38500e+03	0.00852168	700.0
2386	7.01249e+02	2.38600e+03	0.00849869	700.0
2387	7.01253e+02	2.38700e+03	0.00847809	700.0
2388	7.01250e+02	2.38800e+03	0.00847052	700.0
2389	7.01249e+02	2.38900e+03	0.00846354	700.0
2390	7.01249e+02	2.39000e+03	0.00845856	700.0
2391	7.01250e+02	2.39100e+03	0.00845486	700.0
2392	7.01254e+02	2.39200e+03	0.00846054	700.0
2393	7.01247e+02	2.39300e+03	0.00845683	700.0
2394	7.01256e+02	2.39400e+03	0.0084496	700.0
2395	7.01256e+02	2.39500e+03	0.00844085	700.0
2396	7.01256e+02	2.39600e+03	0.00842108	700.0
2397	7.01249e+02	2.39700e+03	0.00840536	700.0
2398	7.01249e+02	2.39800e+03	0.00839046	700.0
2399	7.01256e+02	2.39900e+03	0.00837596	700.0
2400	7.01250e+02	2.40000e+03	0.00837228	700.0
2401	7.01255e+02	2.40100e+03	0.00837743	700.0
2402	7.01254e+02	2.40200e+03	0.00838846	700.0
2403	7.01250e+02	2.40300e+03	0.00840293	700.0
2404	7.01248e+02	2.40400e+03	0.0084431	700.0
2405	7.01255e+02	2.40500e+03	0.00847048	700.0
2406	7.01250e+02	2.40600e+03	0.00849369	700.0
2407	7.01260e+02	2.40700e+03	0.00851504	700.0
2408	7.01250e+02	2.40800e+03	0.00852909	700.0
2409	7.01246e+02	2.40900e+03	0.00854049	700.0
2410	7.01247e+02	2.41000e+03	0.00854919	700.0
2411	7.01247e+02	2.41100e+03	0.00855476	700.0
2412	7.01251e+02	2.41200e+03	0.00854573	700.0
2413	7.01248e+02	2.41300e+03	0.00854677	700.0
2414	7.01255e+02	2.41400e+03	0.00855141	700.0
2415	7.01247e+02	2.41500e+03	0.00855738	700.0
2416	7.01246e+02	2.41600e+03	0.00856386	700.0
2417	7.01243e+02	2.41700e+03	0.00856465	700.0
2418	7.01248e+02	2.41800e+03	0.00855769	700.0
2419	7.01248e+02	2.41900e+03	0.00854452	700.0
2420	7.01251e+02	2.42000e+03	0.00849981	700.0
2421	7.01251e+02	2.42100e+03	0.00844771	700.0
2422	7.01249e+02	2.42200e+03	0.0083872	700.0
2423	7.01245e+02	2.42300e+03	0.00832275	700.0
2424	7.01243e+02	2.42400e+03	0.00822194	700.0
2425	7.01238e+02	2.42500e+03	0.00814807	700.0
2426	7.01251e+02	2.42600e+03	0.00808603	700.0
2427	7.01247e+02	2.42700e+03	0.0080305	700.0
2428	7.01249e+02	2.42800e+03	0.0080188	700.0
2429	7.01249e+02	2.42900e+03	0.00801064	700.0
2430	7.01250e+02	2.43000e+03	0.00801444	700.0
2431	7.01238e+02	2.43100e+03	0.00802709	700.0
2432	7.01230e+02	2.43200e+03	0.00809835	700.0
2433	7.01243e+02	2.43300e+03	0.00815217	700.0
2434	7.01235e+02	2.43400e+03	0.00820712	700.0
2435	7.01239e+02	2.43500e+03	0.00826404	700.0
2436	7.01242e+02	2.43600e+03	0.00833263	700.0
2437	7.01243e+02	2.43700e+03	0.00838692	700.0
2438	7.01249e+02	2.43800e+03	0.0084336	700.0
2439	7.01234e+02	2.43900e+03	0.008476	700.0
2440	7.01240e+02	2.44000e+03	0.00849346	700.0
2441	7.01232e+02	2.44100e+03	0.00851372	700.0
2442	7.01241e+02	2.44200e+03	0.00852993	700.0
2443	7.01245e+02	2.44300e+03	0.00854276	700.0
2444	7.01246e+02	2.44400e+03	0.00853549	700.0
2445	7.01245e+02	2.44500e+03	0.00853704	700.0
2446	7.01237e+02	2.44600e+03	0.00853943	700.0
2447	7.01244e+02	2.44700e+03	0.00854125	700.0
2448	7.01233e+02	2.44800e+03	0.00854361	700.0
2449	7.01241e+02	2.44900e+03	0.00855044	700.0
2450	7.01240e+02	2.45000e+03	0.008559	700.0
2451	7.01238e+02	2.45100e+03	0.00856706	700.0
2452	7.01236e+02	2.45200e+03	0.00857407	700.0
2453	7.01243e+02	2.45300e+03	0.0085714	700.0
2454	7.01239e+02	2.45400e+03	0.00856021	700.0
2455	7.01243e+02	2.45500e+03	0.00854445	700.0
2456	7.01233e+02	2.45600e+03	0.00851513	700.0
2457	7.01233e+02	2.45700e+03	0.00849674	700.0
2458	7.01240e+02	2.45800e+03	0.00848096	700.0
2459	7.01244e+02	2.45900e+03	0.0084655	700.0
2460	7.01244e+02	2.46000e+03	0.0084529	700.0
2461	7.01241e+02	2.46100e+03	0.00843819	700.0
2462	7.01244e+02	2.46200e+03	0.00841914	700.0
2463	7.01251e+02	2.46300e+03	0.00839664	700.0
2464	7.01240e+02	2.46400e+03	0.0083712	700.0
2465	7.01238e+02	2.46500e+03	0.00834629	700.0
2466	7.01245e+02	2.46600e+03	0.00832349	700.0
2467	7.01242e+02	2.46700e+03	0.00830408	700.0
2468	7.01235e+02	2.46800e+03	0.0082932	700.0
2469	7.01236e+02	2.46900e+03	0.00828926	700.0
2470	7.01240e+02	2.47000e+03	0.00829222	700.0
2471	7.01244e+02	2.47100e+03	0.00830125	700.0
2472	7.01243e+02	2.47200e+03	0.00834526	700.0
2473	7.01240e+02	2.47300e+03	0.00838196	700.0
2474	7.01240e+02	2.47400e+03	0.00842136	700.0
2475	7.01240e+02	2.47500e+03	0.00846229	700.0
2476	7.01233e+02	2.47600e+03	0.00851518	700.0
2477	7.01237e+02	2.47700e+03	0.00855491	700.0
2478	7.01240e+02	2.47800e+03	0.00858798	700.0
2479	7.01233e+02	2.47900e+03	0.00861739	700.0
2480	7.01235e+02	2.48000e+03	0.00862607	700.0
2481	7.01228e+02	2.48100e+03	0.00863665	700.0
2482	7.01236e+02	2.48200e+03	0.00864301	700.0
2483	7.01240e+02	2.48300e+03	0.00864585	700.0
2484	7.01241e+02	2.48400e+03	0.00862854	700.0
2485	7.01239e+02	2.48500e+03	0.0086177	700.0
2486	7.01229e+02	2.48600e+03	0.00860648	700.0
2487	7.01229e+02	2.48700e+03	0.00859418	700.0
2488	7.01222e+02	2.48800e+03	0.00857604	700.0
2489	7.01225e+02	2.48900e+03	0.00856211	700.0
2490	7.01226e+02	2.49000e+03	0.00854994	700.0
2491	7.01231e+02	2.49100e+03	0.00853895	700.0
2492	7.01234e+02	2.49200e+03	0.00853936	700.0
2493	7.01231e+02	2.49300e+03	0.0085416	700.0
2494	7.01235e+02	2.49400e+03	0.0085437	700.0
2495	7.01234e+02	2.49500e+03	0.00854423	700.0
2496	7.01229e+02	2.49600e+03	0.00854549	700.0
2497	7.01233e+02	2.49700e+03	0.00853742	700.0
2498	7.01226e+02	2.49800e+03	0.00852709	700.0
2499	7.01229e+02	2.49900e+03	0.00851668	700.0
2500	7.01223e+02	2.50000e+03	0.00849466	700.0
2501	7.01227e+02	2.50100e+03	0.00848561	700.0
2502	7.01222e+02	2.50200e+03	0.00848193	700.0
2503	7.01225e+02	2.50300e+03	0.00848066	700.0
2504	7.01228e+02	2.50400e+03	0.00849695	700.0
2505	7.01228e+02	2.50500e+03	0.00850669	700.0
2506	7.01231e+02	2.50600e+03	0.0085155	700.0
2507	7.01222e+02	2.50700e+03	0.00852427	700.0
2508	7.01223e+02	2.50800e+03	0.0085325	700.0
2509	7.01221e+02	2.50900e+03	0.00853617	700.0
2510	7.01223e+02	2.51000e+03	0.00853729	700.0
2511	7.01224e+02	2.51100e+03	0.00853705	700.0
2512	7.01221e+02	2.51200e+03	0.00852745	700.0
2513	7.01224e+02	2.51300e+03	0.00852258	700.0
2514	7.01226e+02	2.51400e+03	0.00851987	700.0
2515	7.01229e+02	2.51500e+03	0.00851997	700.0
2516	7.01229e+02	2.51600e+03	0.00852847	700.0
2517	7.01227e+02	2.51700e+03	0.00853716	700.0
2518	7.01225e+02	2.51800e+03	0.00854674	700.0
2519	7.01229e+02	2.51900e+03	0.00855702	700.0
2520	7.01222e+02	2.52000e+03	0.00857478	700.0
2521	7.01215e+02	2.52100e+03	0.00858329	700.0
2522	7.01222e+02	2.52200e+03	0.00858679	700.0
2523	7.01228e+02	2.52300e+03	0.00858766	700.0
2524	7.01223e+02	2.52400e+03	0.00857572	700.0
2525	7.01220e+02	2.52500e+03	0.00856934	700.0
2526	7.01221e+02	2.52600e+03	0.00856546	700.0
2527	7.01225e+02	2.52700e+03	0.00856311	700.0
2528	7.01225e+02	2.52800e+03	0.00856631	700.0
2529	7.01217e+02	2.52900e+03	0.00857427	700.0
2530	7.01224e+02	2.53000e+03	0.00858479	700.0
2531	7.01228e+02	2.53100e+03	0.00859647	700.0
2532	7.01220e+02	2.53200e+03	0.00862061	700.0
2533	7.01214e+02	2.53300e+03	0.00863889	700.0
2534	7.01219e+02	2.53400e+03	0.00865688	700.0
2535	7.01222e+02	2.53500e+03	0.00867393	700.0
2536	7.01211e+02	2.53600e+03	0.00868289	700.0
2537	7.01214e+02	2.53700e+03	0.00868816	700.0
2538	7.01224e+02	2.53800e+03	0.0086867	700.0
2539	7.01219e+02	2.53900e+03	0.0086812	700.0
2540	7.01222e+02	2.54000e+03	0.00866141	700.0
2541	7.01224e+02	2.54100e+03	0.00864607	700.0
2542	7.01219e+02	2.54200e+03	0.00863057	700.0
2543	7.01222e+02	2.54300e+03	0.00861453	700.0
2544	7.01214e+02	2.54400e+03	0.00859213	700.0
2545	7.01222e+02	2.54500e+03	0.00857407	700.0
2546	7.01227e+02	2.54600e+03	0.00855677	700.0
2547	7.01215e+02	2.54700e+03	0.00853931	700.0
2548	7.01212e+02	2.54800e+03	0.00852229	700.0
2549	7.01212e+02	2.54900e+03	0.00850362	700.0
2550	7.01220e+02	2.55000e+03	0.00848763	700.0
2551	7.01211e+02	2.55100e+03	0.00847564	700.0
2552	7.01221e+02	2.55200e+03	0.00847272	700.0
2553	7.01217e+02	2.55300e+03	0.00847393	700.0
2554	7.01219e+02	2.55400e+03	0.00847844	700.0
2555	7.01220e+02	2.55500e+03	0.0084847	700.0
2556	7.01215e+02	2.55600e+03	0.00850953	700.0
2557	7.01220e+02	2.55700e+03	0.00852282	700.0
2558	7.01211e+02	2.55800e+03	0.00853188	700.0
2559	7.01214e+02	2.55900e+03	0.00853902	700.0
2560	7.01214e+02	2.56000e+03	0.00853403	700.0
2561	7.01212e+02	2.56100e+03	0.00852875	700.0
2562	7.01210e+02	2.56200e+03	0.00852164	700.0
2563	7.01209e+02	2.56300e+03	0.00851328	700.0
2564	7.01217e+02	2.56400e+03	0.00849515	700.0
2565	7.01216e+02	2.56500e+03	0.00848635	700.0
2566	7.01212e+02	2.56600e+03	0.00848371	700.0
2567	7.01218e+02	2.56700e+03	0.00848444	700.0
2568	7.01214e+02	2.56800e+03	0.00849351	700.0
2569	7.01208e+02	2.56900e+03	0.00849801	700.0
2570	7.01209e+02	2.57000e+03	0.0085014	700.0
2571	7.01214e+02	2.57100e+03	0.00850438	700.0
2572	7.01206e+02	2.57200e+03	0.008508	700.0
2573	7.01207e+02	2.57300e+03	0.0085097	700.0
2574	7.01208e+02	2.57400e+03	0.00851052	700.0
2575	7.01208e+02	2.57500e+03	0.008511	700.0
2576	7.01212e+02	2.57600e+03	0.00850884	700.0
2577	7.01209e+02	2.57700e+03	0.00850688	700.0
2578	7.01208e+02	2.57800e+03	0.0085021	700.0
2579	7.01202e+02	2.57900e+03	0.00849564	700.0
2580	7.01206e+02	2.58000e+03	0.00848892	700.0
2581	7.01205e+02	2.58100e+03	0.00848283	700.0
2582	7.01207e+02	2.58200e+03	0.00847777	700.0
2583	7.01207e+02	2.58300e+03	0.00847448	700.0
2584	7.01196e+02	2.58400e+03	0.00847677	700.0
2585	7.01202e+02	2.58500e+03	0.00848115	700.0
2586	7.01213e+02	2.58600e+03	0.00848681	700.0
2587	7.01205e+02	2.58700e+03	0.00849324	700.0
2588	7.01202e+02	2.58800e+03	0.00850773	700.0
2589	7.01206e+02	2.58900e+03	0.00851178	700.0
2590	7.01209e+02	2.59000e+03	0.00850883	700.0
2591	7.01201e+02	2.59100e+03	0.00850289	700.0
2592	7.01211e+02	2.59200e+03	0.00848491	700.0
2593	7.01208e+02	2.59300e+03	0.00847402	700.0
2594	7.01205e+02	2.59400e+03	0.00846634	700.0
2595	7.01211e+02	2.59500e+03	0.008459	700.0
2596	7.01213e+02	2.59600e+03	0.00844883	700.0
2597	7.01204e+02	2.59700e+03	0.00844143	700.0
2598	7.01206e+02	2.59800e+03	0.00843708	700.0
2599	7.01213e+02	2.59900e+03	0.00843589	700.0
2600	7.01208e+02	2.60000e+03	0.0084454	700.0
2601	7.01208e+02	2.60100e+03	0.00845254	700.0
2602	7.01210e+02	2.60200e+03	0.00845946	700.0
2603	7.01204e+02	2.60300e+03	0.00846647	700.0
2604	7.01206e+02	2.60400e+03	0.00847965	700.0
2605	7.01202e+02	2.60500e+03	0.00848735	700.0
2606	7.01205e+02	2.60600e+03	0.00849306	700.0
2607	7.01208e+02	2.60700e+03	0.00849797	700.0
2608	7.01202e+02	2.60800e+03	0.00849733	700.0
2609	7.01194e+02	2.60900e+03	0.00850172	700.0
2610	7.01201e+02	2.61000e+03	0.00851038	700.0
2611	7.01201e+02	2.61100e+03	0.00852119	700.0
2612	7.01198e+02	2.61200e+03	0.00853468	700.0
2613	7.01205e+02	2.61300e+03	0.00854574	700.0
2614	7.01208e+02	2.61400e+03	0.00855465	700.0
2615	7.01201e+02	2.61500e+03	0.00856187	700.0
2616	7.01204e+02	2.61600e+03	0.00856361	700.0
2617	7.01204e+02	2.61700e+03	0.00856184	700.0
2618	7.01196e+02	2.61800e+03	0.00855687	700.0
2619	7.01198e+02	2.61900e+03	0.00854998	700.0
2620	7.01208e+02	2.62000e+03	0.0085298	700.0
2621	7.01202e+02	2.62100e+03	0.00851353	700.0
2622	7.01196e+02	2.62200e+03	0.00849472	700.0
2623	7.01198e+02	2.62300e+03	0.00847406	700.0
2624	7.01198e+02	2.62400e+03	0.00845339	700.0
2625	7.01196e+02	2.62500e+03	0.0084369	700.0
2626	7.01193e+02	2.62600e+03	0.00842328	700.0
2627	7.01200e+02	2.62700e+03	0.00841146	700.0
2628	7.01194e+02	2.62800e+03	0.00840463	700.0
2629	7.01195e+02	2.62900e+03	0.00839361	700.0
2630	7.01199e+02	2.63000e+03	0.00838245	700.0
2631	7.01197e+02	2.63100e+03	0.00837253	700.0
2632	7.01204e+02	2.63200e+03	0.00837317	700.0
2633	7.01194e+02	2.63300e+03	0.00838144	700.0
2634	7.01189e+02	2.63400e+03	0.00839761	700.0
2635	7.01194e+02	2.63500e+03	0.00841825	700.0
2636	7.01194e+02	2.63600e+03	0.0084578	700.0
2637	7.01187e+02	2.63700e+03	0.00848587	700.0
2638	7.01193e+02	2.63800e+03	0.0085104	700.0
2639	7.01192e+02	2.63900e+03	0.00853348	700.0
2640	7.01199e+02	2.64000e+03	0.00855088	700.0
2641	7.01184e+02	2.64100e+03	0.00856622	700.0
2642	7.01193e+02	2.64200e+03	0.00857892	700.0
2643	7.01188e+02	2.64300e+03	0.0085899	700.0
2644	7.01191e+02	2.64400e+03	0.00859056	700.0
2645	7.01184e+02	2.64500e+03	0.00859634	700.0
2646	7.01181e+02	2.64600e+03	0.00860296	700.0
2647	7.01183e+02	2.64700e+03	0.0086095	700.0
2648	7.01192e+02	2.64800e+03	0.00861531	700.0
2649	7.01188e+02	2.64900e+03	0.0086202	700.0
2650	7.01186e+02	2.65000e+03	0.00862333	700.0
2651	7.01188e+02	2.65100e+03	0.00862508	700.0
2652	7.01194e+02	2.65200e+03	0.00862	700.0
2653	7.01187e+02	2.65300e+03	0.00861358	700.0
2654	7.01190e+02	2.65400e+03	0.00860517	700.0
2655	7.01190e+02	2.65500e+03	0.00859543	700.0
2656	7.01191e+02	2.65600e+03	0.00857642	700.0
2657	7.01181e+02	2.65700e+03	0.00856181	700.0
2658	7.01190e+02	2.65800e+03	0.00854751	700.0
2659	7.01186e+02	2.65900e+03	0.00853289	700.0
2660	7.01190e+02	2.66000e+03	0.00851796	700.0
2661	7.01188e+02	2.66100e+03	0.00850321	700.0
2662	7.01193e+02	2.66200e+03	0.00848868	700.0
2663	7.01190e+02	2.66300e+03	0.00847429	700.0
2664	7.01192e+02	2.66400e+03	0.00845985	700.0
2665	7.01193e+02	2.66500e+03	0.00844541	700.0
2666	7.01186e+02	2.66600e+03	0.00843089	700.0
2667	7.01184e+02	2.66700e+03	0.00841634	700.0
2668	7.01181e+02	2.66800e+03	0.00840173	700.0
2669	7.01186e+02	2.66900e+03	0.0083861	700.0
2670	7.01180e+02	2.67000e+03	0.008367	700.0
2671	7.01194e+02	2.67100e+03	0.00834494	700.0
2672	7.01186e+02	2.67200e+03	0.00831395	700.0
2673	7.01183e+02	2.67300e+03	0.00828235	700.0
2674	7.01190e+02	2.67400e+03	0.00825314	700.0
2675	7.01192e+02	2.67500e+03	0.00822786	700.0
2676	7.01189e+02	2.67600e+03	0.00820908	700.0
2677	7.01187e+02	2.67700e+03	0.00820113	700.0
2678	7.01187e+02	2.67800e+03	0.00820084	700.0
2679	7.01183e+02	2.67900e+03	0.00820522	700.0
2680	7.01188e+02	2.68000e+03	0.00824425	700.0
2681	7.01188e+02	2.68100e+03	0.00827104	700.0
2682	7.01179e+02	2.68200e+03	0.00830043	700.0
2683	7.01185e+02	2.68300e+03	0.00833365	700.0
2684	7.01187e+02	2.68400e+03	0.00837407	700.0
2685	7.01184e+02	2.68500e+03	0.00840704	700.0
2686	7.01190e+02	2.68600e+03	0.00843587	700.0
2687	7.01188e+02	2.68700e+03	0.00846229	700.0
2688	7.01189e+02	2.68800e+03	0.00847789	700.0
2689	7.01182e+02	2.68900e+03	0.00849215	700.0
2690	7.01180e+02	2.69000e+03	0.00850339	700.0
2691	7.01184e+02	2.69100e+03	0.0085126	700.0
2692	7.01189e+02	2.69200e+03	0.00850794	700.0
2693	7.01181e+02	2.69300e+03	0.0085088	700.0
2694	7.01185e+02	2.69400e+03	0.00850874	700.0
2695	7.01193e+02	2.69500e+03	0.00850718	700.0
2696	7.01190e+02	2.69600e+03	0.00850348	700.0
2697	7.01182e+02	2.69700e+03	0.00850194	700.0
2698	7.01183e+02	2.69800e+03	0.00850233	700.0
2699	7.01191e+02	2.69900e+03	0.00850397	700.0
2700	7.01184e+02	2.70000e+03	0.00851429	700.0
2701	7.01185e+02	2.70100e+03	0.00852916	700.0
2702	7.01180e+02	2.70200e+03	0.00854673	700.0
2703	7.01182e+02	2.70300e+03	0.00856488	700.0
2704	7.01183e+02	2.70400e+03	0.00858998	700.0
2705	7.01183e+02	2.70500e+03	0.00860075	700.0
2706	7.01180e+02	2.70600e+03	0.00860167	700.0
2707	7.01185e+02	2.70700e+03	0.00859747	700.0
2708	7.01187e+02	2.70800e+03	0.00857266	700.0
2709	7.01189e+02	2.70900e+03	0.00855849	700.0
2710	7.01181e+02	2.71000e+03	0.00854657	700.0
2711	7.01185e+02	2.71100e+03	0.00853323	700.0
2712	7.01184e+02	2.71200e+03	0.00851638	700.0
2713	7.01176e+02	2.71300e+03	0.00849544	700.0
2714	7.01181e+02	2.71400e+03	0.00847633	700.0
2715	7.01184e+02	2.71500e+03	0.0084613	700.0
2716	7.01178e+02	2.71600e+03	0.00844925	700.0
2717	7.01173e+02	2.71700e+03	0.00843819	700.0
2718	7.01183e+02	2.71800e+03	0.00842569	700.0
2719	7.01185e+02	2.71900e+03	0.00841261	700.0
2720	7.01177e+02	2.72000e+03	0.00840058	700.0
