Index	Ts	t	Weight	Tr
[#]	[°C]	[s]	[mg]	[°C]
681	1.30453e+02	6.81000e+02	3.02804	130.5
682	1.30943e+02	6.82000e+02	3.02801	131.0
683	1.31454e+02	6.83000e+02	3.02797	131.5
684	1.31967e+02	6.84000e+02	3.02791	132.0
685	1.32475e+02	6.85000e+02	3.02787	132.5
686	1.32976e+02	6.86000e+02	3.02783	133.0
687	1.33472e+02	6.87000e+02	3.02778	133.5
688	1.33982e+02	6.88000e+02	3.02774	134.0
689	1.34474e+02	6.89000e+02	3.02769	134.5
690	1.34987e+02	6.90000e+02	3.02764	135.0
691	1.35488e+02	6.91000e+02	3.02758	135.5
692	1.35987e+02	6.92000e+02	3.02752	136.0
693	1.36488e+02	6.93000e+02	3.02747	136.5
694	1.37006e+02	6.94000e+02	3.02742	137.0
695	1.37506e+02	6.95000e+02	3.02737	137.5
696	1.38002e+02	6.96000e+02	3.02732	138.0
697	1.38504e+02	6.97000e+02	3.02727	138.5
698	1.39012e+02	6.98000e+02	3.02721	139.0
699	1.39506e+02	6.99000e+02	3.02715	139.5
700	1.40014e+02	7.00000e+02	3.02707	140.0
701	1.40524e+02	7.01000e+02	3.02699	140.5
702	1.41034e+02	7.02000e+02	3.0269	141.0
703	1.41532e+02	7.03000e+02	3.02681	141.5
704	1.42042e+02	7.04000e+02	3.02669	142.0
705	1.42555e+02	7.05000e+02	3.02657	142.5
706	1.43054e+02	7.06000e+02	3.02644	143.0
707	1.43564e+02	7.07000e+02	3.0263	143.5
708	1.44062e+02	7.08000e+02	3.02615	144.0
709	1.44555e+02	7.09000e+02	3.02601	144.5
710	1.45051e+02	7.10000e+02	3.02588	145.0
711	1.45572e+02	7.11000e+02	3.02576	145.5
712	1.46067e+02	7.12000e+02	3.02566	146.0
713	1.46567e+02	7.13000e+02	3.02556	146.5
714	1.47081e+02	7.14000e+02	3.02547	147.0
715	1.47584e+02	7.15000e+02	3.02537	147.5
716	1.48091e+02	7.16000e+02	3.0253	148.0
717	1.48597e+02	7.17000e+02	3.02521	148.5
718	1.49096e+02	7.18000e+02	3.02511	149.0
719	1.49610e+02	7.19000e+02	3.02502	149.5
720	1.50104e+02	7.20000e+02	3.0249	150.0
721	1.50610e+02	7.21000e+02	3.02477	150.5
722	1.51116e+02	7.22000e+02	3.02462	151.0
723	1.51623e+02	7.23000e+02	3.02447	151.5
724	1.52125e+02	7.24000e+02	3.02425	152.0
725	1.52634e+02	7.25000e+02	3.02405	152.5
726	1.53147e+02	7.26000e+02	3.02384	153.0
727	1.53643e+02	7.27000e+02	3.02363	153.5
728	1.54135e+02	7.28000e+02	3.02338	154.0
729	1.54656e+02	7.29000e+02	3.02315	154.5
730	1.55151e+02	7.30000e+02	3.02292	155.0
731	1.55670e+02	7.31000e+02	3.02269	155.5
732	1.56168e+02	7.32000e+02	3.02246	156.0
733	1.56666e+02	7.33000e+02	3.02222	156.5
734	1.57181e+02	7.34000e+02	3.02199	157.0
735	1.57683e+02	7.35000e+02	3.02176	157.5
736	1.58182e+02	7.36000e+02	3.02154	158.0
737	1.58692e+02	7.37000e+02	3.02133	158.5
738	1.59195e+02	7.38000e+02	3.02112	159.0
739	1.59703e+02	7.39000e+02	3.02092	159.5
740	1.60215e+02	7.40000e+02	3.02075	160.0
741	1.60715e+02	7.41000e+02	3.02055	160.5
742	1.61222e+02	7.42000e+02	3.02035	161.0
743	1.61731e+02	7.43000e+02	3.02015	161.5
744	1.62229e+02	7.44000e+02	3.01992	162.0
745	1.62725e+02	7.45000e+02	3.0197	162.5
746	1.63236e+02	7.46000e+02	3.01947	163.0
747	1.63750e+02	7.47000e+02	3.01924	163.5
748	1.64260e+02	7.48000e+02	3.01899	164.0
749	1.64765e+02	7.49000e+02	3.01875	164.5
750	1.65257e+02	7.50000e+02	3.01851	165.0
751	1.65775e+02	7.51000e+02	3.01828	165.5
752	1.66285e+02	7.52000e+02	3.01805	166.0
753	1.66789e+02	7.53000e+02	3.01782	166.5
754	1.67296e+02	7.54000e+02	3.0176	167.0
755	1.67792e+02	7.55000e+02	3.01737	167.5
756	1.68302e+02	7.56000e+02	3.01714	168.0
757	1.68813e+02	7.57000e+02	3.01691	168.5
758	1.69319e+02	7.58000e+02	3.01667	169.0
759	1.69829e+02	7.59000e+02	3.01643	169.5
760	1.70334e+02	7.60000e+02	3.01617	170.0
761	1.70843e+02	7.61000e+02	3.01591	170.5
762	1.71348e+02	7.62000e+02	3.01565	171.0
763	1.71851e+02	7.63000e+02	3.01538	171.5
764	1.72358e+02	7.64000e+02	3.01509	172.0
765	1.72863e+02	7.65000e+02	3.0148	172.5
766	1.73373e+02	7.66000e+02	3.0145	173.0
767	1.73895e+02	7.67000e+02	3.01419	173.5
768	1.74389e+02	7.68000e+02	3.01386	174.0
769	1.74900e+02	7.69000e+02	3.01355	174.5
770	1.75406e+02	7.70000e+02	3.01325	175.0
771	1.75903e+02	7.71000e+02	3.01294	175.5
772	1.76418e+02	7.72000e+02	3.01263	176.0
773	1.76921e+02	7.73000e+02	3.01231	176.5
774	1.77430e+02	7.74000e+02	3.01198	177.0
775	1.77935e+02	7.75000e+02	3.01163	177.5
776	1.78446e+02	7.76000e+02	3.01126	178.0
777	1.78960e+02	7.77000e+02	3.01088	178.5
778	1.79467e+02	7.78000e+02	3.01051	179.0
779	1.79965e+02	7.79000e+02	3.01013	179.5
780	1.80470e+02	7.80000e+02	3.00972	180.0
781	1.80972e+02	7.81000e+02	3.00932	180.5
782	1.81495e+02	7.82000e+02	3.00892	181.0
783	1.82003e+02	7.83000e+02	3.00851	181.5
784	1.82503e+02	7.84000e+02	3.00809	182.0
785	1.83013e+02	7.85000e+02	3.00767	182.5
786	1.83512e+02	7.86000e+02	3.00724	183.0
787	1.84036e+02	7.87000e+02	3.00679	183.5
788	1.84541e+02	7.88000e+02	3.0063	184.0
789	1.85045e+02	7.89000e+02	3.00581	184.5
790	1.85558e+02	7.90000e+02	3.00528	185.0
791	1.86063e+02	7.91000e+02	3.00474	185.5
792	1.86580e+02	7.92000e+02	3.00412	186.0
793	1.87083e+02	7.93000e+02	3.0035	186.5
794	1.87596e+02	7.94000e+02	3.00288	187.0
795	1.88097e+02	7.95000e+02	3.00223	187.5
796	1.88594e+02	7.96000e+02	3.0015	188.0
797	1.89113e+02	7.97000e+02	3.00078	188.5
798	1.89621e+02	7.98000e+02	3.00005	189.0
799	1.90128e+02	7.99000e+02	2.9993	189.5
800	1.90631e+02	8.00000e+02	2.99848	190.0
801	1.91138e+02	8.01000e+02	2.99768	190.5
802	1.91650e+02	8.02000e+02	2.99685	191.0
803	1.92152e+02	8.03000e+02	2.99601	191.5
804	1.92654e+02	8.04000e+02	2.9951	192.0
805	1.93171e+02	8.05000e+02	2.9942	192.5
806	1.93682e+02	8.06000e+02	2.99328	193.0
807	1.94183e+02	8.07000e+02	2.99235	193.5
808	1.94707e+02	8.08000e+02	2.99135	194.0
809	1.95209e+02	8.09000e+02	2.99037	194.5
810	1.95721e+02	8.10000e+02	2.98937	195.0
811	1.96229e+02	8.11000e+02	2.98837	195.5
812	1.96735e+02	8.12000e+02	2.98731	196.0
813	1.97242e+02	8.13000e+02	2.98627	196.5
814	1.97749e+02	8.14000e+02	2.98522	197.0
815	1.98259e+02	8.15000e+02	2.98416	197.5
816	1.98777e+02	8.16000e+02	2.98306	198.0
817	1.99288e+02	8.17000e+02	2.98198	198.5
818	1.99801e+02	8.18000e+02	2.98091	199.0
819	2.00302e+02	8.19000e+02	2.97983	199.5
820	2.00809e+02	8.20000e+02	2.97877	200.0
821	2.01319e+02	8.21000e+02	2.97771	200.5
822	2.01825e+02	8.22000e+02	2.97667	201.0
823	2.02334e+02	8.23000e+02	2.97563	201.5
824	2.02839e+02	8.24000e+02	2.97464	202.0
825	2.03357e+02	8.25000e+02	2.97365	202.5
826	2.03871e+02	8.26000e+02	2.97267	203.0
827	2.04375e+02	8.27000e+02	2.9717	203.5
828	2.04893e+02	8.28000e+02	2.97079	204.0
829	2.05406e+02	8.29000e+02	2.96987	204.5
830	2.05909e+02	8.30000e+02	2.96896	205.0
831	2.06411e+02	8.31000e+02	2.96807	205.5
832	2.06925e+02	8.32000e+02	2.96724	206.0
833	2.07436e+02	8.33000e+02	2.96641	206.5
834	2.07962e+02	8.34000e+02	2.9656	207.0
835	2.08467e+02	8.35000e+02	2.9648	207.5
836	2.08966e+02	8.36000e+02	2.96409	208.0
837	2.09474e+02	8.37000e+02	2.96337	208.5
838	2.09990e+02	8.38000e+02	2.96267	209.0
839	2.10498e+02	8.39000e+02	2.96199	209.5
840	2.11015e+02	8.40000e+02	2.9614	210.0
841	2.11516e+02	8.41000e+02	2.96079	210.5
842	2.12034e+02	8.42000e+02	2.9602	211.0
843	2.12545e+02	8.43000e+02	2.95963	211.5
844	2.13060e+02	8.44000e+02	2.95914	212.0
845	2.13565e+02	8.45000e+02	2.95864	212.5
846	2.14077e+02	8.46000e+02	2.95816	213.0
847	2.14585e+02	8.47000e+02	2.95769	213.5
848	2.15106e+02	8.48000e+02	2.9573	214.0
849	2.15607e+02	8.49000e+02	2.95689	214.5
850	2.16113e+02	8.50000e+02	2.95648	215.0
851	2.16629e+02	8.51000e+02	2.95608	215.5
852	2.17143e+02	8.52000e+02	2.95572	216.0
853	2.17658e+02	8.53000e+02	2.95536	216.5
854	2.18154e+02	8.54000e+02	2.955	217.0
855	2.18674e+02	8.55000e+02	2.95464	217.5
856	2.19184e+02	8.56000e+02	2.95431	218.0
857	2.19692e+02	8.57000e+02	2.95398	218.5
858	2.20197e+02	8.58000e+02	2.95365	219.0
859	2.20715e+02	8.59000e+02	2.95333	219.5
860	2.21221e+02	8.60000e+02	2.95305	220.0
861	2.21729e+02	8.61000e+02	2.95276	220.5
862	2.22239e+02	8.62000e+02	2.95248	221.0
863	2.22753e+02	8.63000e+02	2.95221	221.5
864	2.23270e+02	8.64000e+02	2.95196	222.0
865	2.23767e+02	8.65000e+02	2.95169	222.5
866	2.24287e+02	8.66000e+02	2.95141	223.0
867	2.24805e+02	8.67000e+02	2.95112	223.5
868	2.25321e+02	8.68000e+02	2.95082	224.0
869	2.25830e+02	8.69000e+02	2.95051	224.5
870	2.26337e+02	8.70000e+02	2.95021	225.0
871	2.26850e+02	8.71000e+02	2.9499	225.5
872	2.27352e+02	8.72000e+02	2.94956	226.0
873	2.27865e+02	8.73000e+02	2.94924	226.5
874	2.28380e+02	8.74000e+02	2.94891	227.0
875	2.28887e+02	8.75000e+02	2.94858	227.5
876	2.29399e+02	8.76000e+02	2.94824	228.0
877	2.29914e+02	8.77000e+02	2.94793	228.5
878	2.30415e+02	8.78000e+02	2.94762	229.0
879	2.30918e+02	8.79000e+02	2.94732	229.5
880	2.31429e+02	8.80000e+02	2.94704	230.0
881	2.31952e+02	8.81000e+02	2.94674	230.5
882	2.32460e+02	8.82000e+02	2.94644	231.0
883	2.32971e+02	8.83000e+02	2.94613	231.5
884	2.33483e+02	8.84000e+02	2.94581	232.0
885	2.33996e+02	8.85000e+02	2.94549	232.5
886	2.34515e+02	8.86000e+02	2.94517	233.0
887	2.35020e+02	8.87000e+02	2.94484	233.5
888	2.35526e+02	8.88000e+02	2.94449	234.0
889	2.36015e+02	8.89000e+02	2.94414	234.5
890	2.36532e+02	8.90000e+02	2.94378	235.0
891	2.37039e+02	8.91000e+02	2.94342	235.5
892	2.37562e+02	8.92000e+02	2.94304	236.0
893	2.38069e+02	8.93000e+02	2.94267	236.5
894	2.38556e+02	8.94000e+02	2.9423	237.0
895	2.39066e+02	8.95000e+02	2.94193	237.5
896	2.39552e+02	8.96000e+02	2.94156	238.0
897	2.40052e+02	8.97000e+02	2.94119	238.5
898	2.40574e+02	8.98000e+02	2.94082	239.0
899	2.41075e+02	8.99000e+02	2.94045	239.5
900	2.41568e+02	9.00000e+02	2.94008	240.0
901	2.42085e+02	9.01000e+02	2.93972	240.5
902	2.42593e+02	9.02000e+02	2.93936	241.0
903	2.43089e+02	9.03000e+02	2.939	241.5
904	2.43603e+02	9.04000e+02	2.93864	242.0
905	2.44104e+02	9.05000e+02	2.93828	242.5
906	2.44612e+02	9.06000e+02	2.93792	243.0
907	2.45119e+02	9.07000e+02	2.93756	243.5
908	2.45620e+02	9.08000e+02	2.93719	244.0
909	2.46143e+02	9.09000e+02	2.93682	244.5
910	2.46648e+02	9.10000e+02	2.93646	245.0
911	2.47146e+02	9.11000e+02	2.9361	245.5
912	2.47665e+02	9.12000e+02	2.93575	246.0
913	2.48183e+02	9.13000e+02	2.9354	246.5
914	2.48694e+02	9.14000e+02	2.93507	247.0
915	2.49215e+02	9.15000e+02	2.93474	247.5
916	2.49717e+02	9.16000e+02	2.93443	248.0
917	2.50241e+02	9.17000e+02	2.93412	248.5
918	2.50751e+02	9.18000e+02	2.93381	249.0
919	2.51260e+02	9.19000e+02	2.9335	249.5
920	2.51785e+02	9.20000e+02	2.93321	250.0
921	2.52288e+02	9.21000e+02	2.93291	250.5
922	2.52807e+02	9.22000e+02	2.9326	251.0
923	2.53341e+02	9.23000e+02	2.93229	251.5
924	2.53839e+02	9.24000e+02	2.93198	252.0
925	2.54350e+02	9.25000e+02	2.93166	252.5
926	2.54882e+02	9.26000e+02	2.93133	253.0
927	2.55391e+02	9.27000e+02	2.93101	253.5
928	2.55894e+02	9.28000e+02	2.93067	254.0
929	2.56416e+02	9.29000e+02	2.93035	254.5
930	2.56933e+02	9.30000e+02	2.93003	255.0
931	2.57446e+02	9.31000e+02	2.92972	255.5
932	2.57958e+02	9.32000e+02	2.92941	256.0
933	2.58471e+02	9.33000e+02	2.9291	256.5
934	2.59006e+02	9.34000e+02	2.92878	257.0
935	2.59530e+02	9.35000e+02	2.92847	257.5
936	2.60070e+02	9.36000e+02	2.92815	258.0
937	2.60581e+02	9.37000e+02	2.92785	258.5
938	2.61098e+02	9.38000e+02	2.92754	259.0
939	2.61609e+02	9.39000e+02	2.92724	259.5
940	2.62144e+02	9.40000e+02	2.92695	260.0
941	2.62682e+02	9.41000e+02	2.92665	260.5
942	2.63232e+02	9.42000e+02	2.92635	261.0
943	2.63756e+02	9.43000e+02	2.92606	261.5
944	2.64289e+02	9.44000e+02	2.92577	262.0
945	2.64855e+02	9.45000e+02	2.92549	262.5
946	2.65390e+02	9.46000e+02	2.92521	263.0
947	2.65880e+02	9.47000e+02	2.92494	263.5
948	2.66403e+02	9.48000e+02	2.92467	264.0
949	2.66901e+02	9.49000e+02	2.92438	264.5
950	2.67397e+02	9.50000e+02	2.92409	265.0
951	2.67913e+02	9.51000e+02	2.9238	265.5
952	2.68415e+02	9.52000e+02	2.92348	266.0
953	2.68950e+02	9.53000e+02	2.92318	266.5
954	2.69475e+02	9.54000e+02	2.92286	267.0
955	2.69994e+02	9.55000e+02	2.92255	267.5
956	2.70498e+02	9.56000e+02	2.92222	268.0
957	2.71014e+02	9.57000e+02	2.92188	268.5
958	2.71515e+02	9.58000e+02	2.92155	269.0
959	2.72028e+02	9.59000e+02	2.9212	269.5
960	2.72527e+02	9.60000e+02	2.92084	270.0
961	2.73050e+02	9.61000e+02	2.9205	270.5
962	2.73575e+02	9.62000e+02	2.92016	271.0
963	2.74081e+02	9.63000e+02	2.91982	271.5
964	2.74600e+02	9.64000e+02	2.91949	272.0
965	2.75106e+02	9.65000e+02	2.91915	272.5
966	2.75622e+02	9.66000e+02	2.91879	273.0
967	2.76143e+02	9.67000e+02	2.91843	273.5
968	2.76671e+02	9.68000e+02	2.91805	274.0
969	2.77175e+02	9.69000e+02	2.91767	274.5
970	2.77701e+02	9.70000e+02	2.91727	275.0
971	2.78209e+02	9.71000e+02	2.91688	275.5
972	2.78713e+02	9.72000e+02	2.91644	276.0
973	2.79217e+02	9.73000e+02	2.91601	276.5
974	2.79717e+02	9.74000e+02	2.91557	277.0
975	2.80213e+02	9.75000e+02	2.91513	277.5
976	2.80732e+02	9.76000e+02	2.91466	278.0
977	2.81225e+02	9.77000e+02	2.9142	278.5
978	2.81726e+02	9.78000e+02	2.91373	279.0
979	2.82222e+02	9.79000e+02	2.91326	279.5
980	2.82735e+02	9.80000e+02	2.91276	280.0
981	2.83230e+02	9.81000e+02	2.91227	280.5
982	2.83752e+02	9.82000e+02	2.91176	281.0
983	2.84266e+02	9.83000e+02	2.91124	281.5
984	2.84828e+02	9.84000e+02	2.91068	282.0
985	2.85349e+02	9.85000e+02	2.91011	282.5
986	2.85895e+02	9.86000e+02	2.90953	283.0
987	2.86440e+02	9.87000e+02	2.90893	283.5
988	2.86975e+02	9.88000e+02	2.90826	284.0
989	2.87496e+02	9.89000e+02	2.9076	284.5
990	2.88026e+02	9.90000e+02	2.90691	285.0
991	2.88583e+02	9.91000e+02	2.90621	285.5
992	2.89109e+02	9.92000e+02	2.90543	286.0
993	2.89587e+02	9.93000e+02	2.90466	286.5
994	2.90090e+02	9.94000e+02	2.90388	287.0
995	2.90604e+02	9.95000e+02	2.90309	287.5
996	2.91144e+02	9.96000e+02	2.90221	288.0
997	2.91687e+02	9.97000e+02	2.90135	288.5
998	2.92210e+02	9.98000e+02	2.90046	289.0
999	2.92721e+02	9.99000e+02	2.89956	289.5
1000	2.93251e+02	1.00000e+03	2.89858	290.0
1001	2.93778e+02	1.00100e+03	2.8976	290.5
1002	2.94291e+02	1.00200e+03	2.89662	291.0
1003	2.94815e+02	1.00300e+03	2.89562	291.5
1004	2.95330e+02	1.00400e+03	2.89453	292.0
1005	2.95828e+02	1.00500e+03	2.89345	292.5
1006	2.96330e+02	1.00600e+03	2.89235	293.0
1007	2.96834e+02	1.00700e+03	2.89121	293.5
1008	2.97336e+02	1.00800e+03	2.88996	294.0
1009	2.97851e+02	1.00900e+03	2.88872	294.5
1010	2.98379e+02	1.01000e+03	2.88744	295.0
1011	2.98889e+02	1.01100e+03	2.88615	295.5
1012	2.99374e+02	1.01200e+03	2.88472	296.0
1013	2.99868e+02	1.01300e+03	2.88332	296.5
1014	3.00371e+02	1.01400e+03	2.8819	297.0
1015	3.00857e+02	1.01500e+03	2.88046	297.5
1016	3.01397e+02	1.01600e+03	2.87892	298.0
1017	3.01914e+02	1.01700e+03	2.87738	298.5
1018	3.02448e+02	1.01800e+03	2.87582	299.0
1019	3.02939e+02	1.01900e+03	2.87424	299.5
1020	3.03447e+02	1.02000e+03	2.87253	300.0
1021	3.03949e+02	1.02100e+03	2.87084	300.5
1022	3.04458e+02	1.02200e+03	2.86913	301.0
1023	3.04976e+02	1.02300e+03	2.8674	301.5
1024	3.05488e+02	1.02400e+03	2.86556	302.0
1025	3.05997e+02	1.02500e+03	2.86373	302.5
1026	3.06515e+02	1.02600e+03	2.86188	303.0
1027	3.07014e+02	1.02700e+03	2.86001	303.5
1028	3.07492e+02	1.02800e+03	2.85804	304.0
1029	3.08016e+02	1.02900e+03	2.85609	304.5
1030	3.08523e+02	1.03000e+03	2.85412	305.0
1031	3.09028e+02	1.03100e+03	2.85214	305.5
1032	3.09547e+02	1.03200e+03	2.85006	306.0
1033	3.10046e+02	1.03300e+03	2.84799	306.5
1034	3.10551e+02	1.03400e+03	2.84589	307.0
1035	3.11068e+02	1.03500e+03	2.84377	307.5
1036	3.11563e+02	1.03600e+03	2.84155	308.0
1037	3.12081e+02	1.03700e+03	2.83935	308.5
1038	3.12592e+02	1.03800e+03	2.83713	309.0
1039	3.13098e+02	1.03900e+03	2.8349	309.5
1040	3.13601e+02	1.04000e+03	2.83258	310.0
1041	3.14102e+02	1.04100e+03	2.83028	310.5
1042	3.14628e+02	1.04200e+03	2.82798	311.0
1043	3.15133e+02	1.04300e+03	2.82566	311.5
1044	3.15632e+02	1.04400e+03	2.82328	312.0
1045	3.16150e+02	1.04500e+03	2.82092	312.5
1046	3.16652e+02	1.04600e+03	2.81855	313.0
1047	3.17170e+02	1.04700e+03	2.81617	313.5
1048	3.17742e+02	1.04800e+03	2.81375	314.0
1049	3.18220e+02	1.04900e+03	2.81133	314.5
1050	3.18717e+02	1.05000e+03	2.80891	315.0
1051	3.19221e+02	1.05100e+03	2.80647	315.5
1052	3.19730e+02	1.05200e+03	2.804	316.0
1053	3.20232e+02	1.05300e+03	2.80155	316.5
1054	3.20740e+02	1.05400e+03	2.79909	317.0
1055	3.21246e+02	1.05500e+03	2.79664	317.5
1056	3.21763e+02	1.05600e+03	2.79417	318.0
1057	3.22232e+02	1.05700e+03	2.7917	318.5
1058	3.22699e+02	1.05800e+03	2.78922	319.0
1059	3.23209e+02	1.05900e+03	2.78674	319.5
1060	3.23717e+02	1.06000e+03	2.78425	320.0
1061	3.24219e+02	1.06100e+03	2.78175	320.5
1062	3.24693e+02	1.06200e+03	2.77925	321.0
1063	3.25194e+02	1.06300e+03	2.77674	321.5
1064	3.25689e+02	1.06400e+03	2.77419	322.0
1065	3.26193e+02	1.06500e+03	2.77163	322.5
1066	3.26671e+02	1.06600e+03	2.76904	323.0
1067	3.27161e+02	1.06700e+03	2.76644	323.5
1068	3.27684e+02	1.06800e+03	2.76374	324.0
1069	3.28180e+02	1.06900e+03	2.76104	324.5
1070	3.28755e+02	1.07000e+03	2.75831	325.0
1071	3.29304e+02	1.07100e+03	2.75555	325.5
1072	3.29857e+02	1.07200e+03	2.75266	326.0
1073	3.30373e+02	1.07300e+03	2.74978	326.5
1074	3.30895e+02	1.07400e+03	2.74685	327.0
1075	3.31474e+02	1.07500e+03	2.74389	327.5
1076	3.32093e+02	1.07600e+03	2.74077	328.0
1077	3.32595e+02	1.07700e+03	2.73766	328.5
1078	3.33131e+02	1.07800e+03	2.7345	329.0
1079	3.33609e+02	1.07900e+03	2.7313	329.5
1080	3.34220e+02	1.08000e+03	2.72788	330.0
1081	3.34684e+02	1.08100e+03	2.72447	330.5
1082	3.35187e+02	1.08200e+03	2.72099	331.0
1083	3.35703e+02	1.08300e+03	2.71744	331.5
1084	3.36175e+02	1.08400e+03	2.71359	332.0
1085	3.36691e+02	1.08500e+03	2.70976	332.5
1086	3.37150e+02	1.08600e+03	2.70585	333.0
1087	3.37603e+02	1.08700e+03	2.70186	333.5
1088	3.38079e+02	1.08800e+03	2.69751	334.0
1089	3.38612e+02	1.08900e+03	2.69319	334.5
1090	3.39250e+02	1.09000e+03	2.68879	335.0
1091	3.39837e+02	1.09100e+03	2.6843	335.5
1092	3.40318e+02	1.09200e+03	2.6794	336.0
1093	3.40816e+02	1.09300e+03	2.67453	336.5
1094	3.41369e+02	1.09400e+03	2.66956	337.0
1095	3.41882e+02	1.09500e+03	2.66449	337.5
1096	3.42361e+02	1.09600e+03	2.65896	338.0
1097	3.42809e+02	1.09700e+03	2.65347	338.5
1098	3.43272e+02	1.09800e+03	2.64787	339.0
1099	3.43732e+02	1.09900e+03	2.64216	339.5
1100	3.44228e+02	1.10000e+03	2.63593	340.0
1101	3.44655e+02	1.10100e+03	2.62974	340.5
1102	3.45142e+02	1.10200e+03	2.62343	341.0
1103	3.45551e+02	1.10300e+03	2.61701	341.5
1104	3.46033e+02	1.10400e+03	2.61001	342.0
1105	3.46432e+02	1.10500e+03	2.60309	342.5
1106	3.46898e+02	1.10600e+03	2.59603	343.0
1107	3.47363e+02	1.10700e+03	2.58885	343.5
1108	3.47815e+02	1.10800e+03	2.58104	344.0
1109	3.48292e+02	1.10900e+03	2.57329	344.5
1110	3.48771e+02	1.11000e+03	2.56538	345.0
1111	3.49237e+02	1.11100e+03	2.55735	345.5
1112	3.49710e+02	1.11200e+03	2.54861	346.0
1113	3.50193e+02	1.11300e+03	2.53997	346.5
1114	3.50719e+02	1.11400e+03	2.53119	347.0
1115	3.51233e+02	1.11500e+03	2.52227	347.5
1116	3.51710e+02	1.11600e+03	2.51263	348.0
1117	3.52193e+02	1.11700e+03	2.50307	348.5
1118	3.52702e+02	1.11800e+03	2.49334	349.0
1119	3.53242e+02	1.11900e+03	2.48347	349.5
1120	3.53832e+02	1.12000e+03	2.47284	350.0
1121	3.54380e+02	1.12100e+03	2.46231	350.5
1122	3.54838e+02	1.12200e+03	2.45163	351.0
1123	3.55339e+02	1.12300e+03	2.44079	351.5
1124	3.55823e+02	1.12400e+03	2.42919	352.0
1125	3.56248e+02	1.12500e+03	2.41766	352.5
1126	3.56743e+02	1.12600e+03	2.40595	353.0
1127	3.57262e+02	1.12700e+03	2.39407	353.5
1128	3.57688e+02	1.12800e+03	2.38136	354.0
1129	3.58162e+02	1.12900e+03	2.36876	354.5
1130	3.58597e+02	1.13000e+03	2.35599	355.0
1131	3.59062e+02	1.13100e+03	2.34306	355.5
1132	3.59539e+02	1.13200e+03	2.32931	356.0
1133	3.60031e+02	1.13300e+03	2.31565	356.5
1134	3.60501e+02	1.13400e+03	2.30182	357.0
1135	3.60983e+02	1.13500e+03	2.28783	357.5
1136	3.61454e+02	1.13600e+03	2.27302	358.0
1137	3.61944e+02	1.13700e+03	2.25834	358.5
1138	3.62426e+02	1.13800e+03	2.24349	359.0
1139	3.62918e+02	1.13900e+03	2.2285	359.5
1140	3.63402e+02	1.14000e+03	2.21272	360.0
1141	3.63889e+02	1.14100e+03	2.19706	360.5
1142	3.64382e+02	1.14200e+03	2.18124	361.0
1143	3.64864e+02	1.14300e+03	2.16525	361.5
1144	3.65347e+02	1.14400e+03	2.14852	362.0
1145	3.65849e+02	1.14500e+03	2.1319	362.5
1146	3.66356e+02	1.14600e+03	2.11515	363.0
1147	3.66852e+02	1.14700e+03	2.09826	363.5
1148	3.67343e+02	1.14800e+03	2.08067	364.0
1149	3.67819e+02	1.14900e+03	2.06318	364.5
1150	3.68315e+02	1.15000e+03	2.04556	365.0
1151	3.68792e+02	1.15100e+03	2.0278	365.5
1152	3.69316e+02	1.15200e+03	2.00939	366.0
1153	3.69822e+02	1.15300e+03	1.99105	366.5
1154	3.70305e+02	1.15400e+03	1.97258	367.0
1155	3.70777e+02	1.15500e+03	1.95399	367.5
1156	3.71302e+02	1.15600e+03	1.93472	368.0
1157	3.71837e+02	1.15700e+03	1.91555	368.5
1158	3.72433e+02	1.15800e+03	1.89624	369.0
1159	3.72997e+02	1.15900e+03	1.87678	369.5
1160	3.73466e+02	1.16000e+03	1.85667	370.0
1161	3.73948e+02	1.16100e+03	1.83663	370.5
1162	3.74402e+02	1.16200e+03	1.81647	371.0
1163	3.74886e+02	1.16300e+03	1.79619	371.5
1164	3.75387e+02	1.16400e+03	1.77527	372.0
1165	3.75961e+02	1.16500e+03	1.75448	372.5
1166	3.76477e+02	1.16600e+03	1.7336	373.0
1167	3.76983e+02	1.16700e+03	1.71262	373.5
1168	3.77495e+02	1.16800e+03	1.69115	374.0
1169	3.77983e+02	1.16900e+03	1.66977	374.5
1170	3.78491e+02	1.17000e+03	1.64831	375.0
1171	3.78978e+02	1.17100e+03	1.62679	375.5
1172	3.79482e+02	1.17200e+03	1.60484	376.0
1173	3.79987e+02	1.17300e+03	1.58297	376.5
1174	3.80474e+02	1.17400e+03	1.56101	377.0
1175	3.80940e+02	1.17500e+03	1.53898	377.5
1176	3.81443e+02	1.17600e+03	1.51656	378.0
1177	3.81921e+02	1.17700e+03	1.49419	378.5
1178	3.82377e+02	1.17800e+03	1.47174	379.0
1179	3.82877e+02	1.17900e+03	1.44923	379.5
1180	3.83361e+02	1.18000e+03	1.42638	380.0
1181	3.83828e+02	1.18100e+03	1.40364	380.5
1182	3.84336e+02	1.18200e+03	1.3809	381.0
1183	3.84848e+02	1.18300e+03	1.35814	381.5
1184	3.85346e+02	1.18400e+03	1.33534	382.0
1185	3.85840e+02	1.18500e+03	1.31262	382.5
1186	3.86320e+02	1.18600e+03	1.28998	383.0
1187	3.86834e+02	1.18700e+03	1.26739	383.5
1188	3.87424e+02	1.18800e+03	1.24506	384.0
1189	3.88041e+02	1.18900e+03	1.22273	384.5
1190	3.88498e+02	1.19000e+03	1.20049	385.0
1191	3.88956e+02	1.19100e+03	1.1783	385.5
1192	3.89471e+02	1.19200e+03	1.15644	386.0
1193	3.89949e+02	1.19300e+03	1.1345	386.5
1194	3.90423e+02	1.19400e+03	1.11259	387.0
1195	3.90893e+02	1.19500e+03	1.09071	387.5
1196	3.91446e+02	1.19600e+03	1.06905	388.0
1197	3.91977e+02	1.19700e+03	1.04737	388.5
1198	3.92514e+02	1.19800e+03	1.02574	389.0
1199	3.93005e+02	1.19900e+03	1.00416	389.5
1200	3.93564e+02	1.20000e+03	0.982814	390.0
1201	3.93979e+02	1.20100e+03	0.961456	390.5
1202	3.94386e+02	1.20200e+03	0.940163	391.0
1203	3.94761e+02	1.20300e+03	0.918922	391.5
1204	3.95224e+02	1.20400e+03	0.897968	392.0
1205	3.95729e+02	1.20500e+03	0.876985	392.5
1206	3.96253e+02	1.20600e+03	0.856082	393.0
1207	3.96776e+02	1.20700e+03	0.835246	393.5
1208	3.97264e+02	1.20800e+03	0.814736	394.0
1209	3.97776e+02	1.20900e+03	0.794208	394.5
1210	3.98342e+02	1.21000e+03	0.773772	395.0
1211	3.98838e+02	1.21100e+03	0.75342	395.5
1212	3.99318e+02	1.21200e+03	0.733515	396.0
1213	3.99829e+02	1.21300e+03	0.713597	396.5
1214	4.00368e+02	1.21400e+03	0.693819	397.0
1215	4.00933e+02	1.21500e+03	0.674162	397.5
1216	4.01494e+02	1.21600e+03	0.655087	398.0
1217	4.02073e+02	1.21700e+03	0.635949	398.5
1218	4.02540e+02	1.21800e+03	0.616948	399.0
1219	4.03003e+02	1.21900e+03	0.598071	399.5
1220	4.03502e+02	1.22000e+03	0.579854	400.0
1221	4.04078e+02	1.22100e+03	0.561584	400.5
1222	4.04657e+02	1.22200e+03	0.543507	401.0
1223	4.05188e+02	1.22300e+03	0.525606	401.5
1224	4.05744e+02	1.22400e+03	0.508578	402.0
1225	4.06269e+02	1.22500e+03	0.491544	402.5
1226	4.06843e+02	1.22600e+03	0.474797	403.0
1227	4.07388e+02	1.22700e+03	0.458294	403.5
1228	4.07888e+02	1.22800e+03	0.443032	404.0
1229	4.08399e+02	1.22900e+03	0.427657	404.5
1230	4.08959e+02	1.23000e+03	0.412584	405.0
1231	4.09485e+02	1.23100e+03	0.397784	405.5
1232	4.10008e+02	1.23200e+03	0.384372	406.0
1233	4.10699e+02	1.23300e+03	0.37077	406.5
1234	4.11306e+02	1.23400e+03	0.357448	407.0
1235	4.11884e+02	1.23500e+03	0.344385	407.5
1236	4.12383e+02	1.23600e+03	0.332671	408.0
1237	4.12928e+02	1.23700e+03	0.320749	408.5
1238	4.13404e+02	1.23800e+03	0.309081	409.0
1239	4.13898e+02	1.23900e+03	0.297655	409.5
1240	4.14320e+02	1.24000e+03	0.28748	410.0
1241	4.14850e+02	1.24100e+03	0.277115	410.5
1242	4.15387e+02	1.24200e+03	0.266987	411.0
1243	4.15934e+02	1.24300e+03	0.257082	411.5
1244	4.16488e+02	1.24400e+03	0.248329	412.0
1245	4.16916e+02	1.24500e+03	0.239393	412.5
1246	4.17403e+02	1.24600e+03	0.23067	413.0
1247	4.17960e+02	1.24700e+03	0.222153	413.5
1248	4.18475e+02	1.24800e+03	0.214687	414.0
1249	4.18990e+02	1.24900e+03	0.207068	414.5
1250	4.19486e+02	1.25000e+03	0.199655	415.0
1251	4.20014e+02	1.25100e+03	0.192437	415.5
1252	4.20501e+02	1.25200e+03	0.186206	416.0
1253	4.20954e+02	1.25300e+03	0.179825	416.5
1254	4.21387e+02	1.25400e+03	0.173631	417.0
1255	4.21850e+02	1.25500e+03	0.167613	417.5
1256	4.22379e+02	1.25600e+03	0.162504	418.0
1257	4.22851e+02	1.25700e+03	0.157246	418.5
1258	4.23308e+02	1.25800e+03	0.15215	419.0
1259	4.23827e+02	1.25900e+03	0.147207	419.5
1260	4.24331e+02	1.26000e+03	0.143055	420.0
1261	4.24861e+02	1.26100e+03	0.138759	420.5
1262	4.25330e+02	1.26200e+03	0.134599	421.0
1263	4.25867e+02	1.26300e+03	0.130572	421.5
1264	4.26406e+02	1.26400e+03	0.127218	422.0
1265	4.26970e+02	1.26500e+03	0.123755	422.5
1266	4.27427e+02	1.26600e+03	0.120414	423.0
1267	4.27936e+02	1.26700e+03	0.117187	423.5
1268	4.28536e+02	1.26800e+03	0.114559	424.0
1269	4.29027e+02	1.26900e+03	0.111827	424.5
1270	4.29566e+02	1.27000e+03	0.109199	425.0
1271	4.30230e+02	1.27100e+03	0.10667	425.5
1272	4.30778e+02	1.27200e+03	0.104654	426.0
1273	4.31336e+02	1.27300e+03	0.102545	426.5
1274	4.31759e+02	1.27400e+03	0.100515	427.0
1275	4.32229e+02	1.27500e+03	0.0985635	427.5
1276	4.32683e+02	1.27600e+03	0.0970224	428.0
1277	4.33153e+02	1.27700e+03	0.0953946	428.5
1278	4.33644e+02	1.27800e+03	0.0938264	429.0
1279	4.34139e+02	1.27900e+03	0.0923192	429.5
1280	4.34668e+02	1.28000e+03	0.0911191	430.0
1281	4.35149e+02	1.28100e+03	0.0898644	430.5
1282	4.35639e+02	1.28200e+03	0.08866	431.0
1283	4.36164e+02	1.28300e+03	0.0875046	431.5
1284	4.36665e+02	1.28400e+03	0.0865982	432.0
1285	4.37203e+02	1.28500e+03	0.0856397	432.5
1286	4.37779e+02	1.28600e+03	0.0847162	433.0
1287	4.38246e+02	1.28700e+03	0.0838294	433.5
1288	4.38794e+02	1.28800e+03	0.0831334	434.0
1289	4.39367e+02	1.28900e+03	0.0824014	434.5
1290	4.39900e+02	1.29000e+03	0.0816987	435.0
1291	4.40453e+02	1.29100e+03	0.0810252	435.5
1292	4.40917e+02	1.29200e+03	0.0804996	436.0
1293	4.41489e+02	1.29300e+03	0.0799388	436.5
1294	4.41969e+02	1.29400e+03	0.0793939	437.0
1295	4.42492e+02	1.29500e+03	0.078868	437.5
1296	4.43020e+02	1.29600e+03	0.0784424	438.0
1297	4.43645e+02	1.29700e+03	0.0779956	438.5
1298	4.44066e+02	1.29800e+03	0.0775641	439.0
1299	4.44557e+02	1.29900e+03	0.0771482	439.5
1300	4.45159e+02	1.30000e+03	0.0768008	440.0
1301	4.45596e+02	1.30100e+03	0.0764349	440.5
1302	4.46135e+02	1.30200e+03	0.076074	441.0
1303	4.46550e+02	1.30300e+03	0.0757202	441.5
1304	4.47029e+02	1.30400e+03	0.0754069	442.0
1305	4.47559e+02	1.30500e+03	0.0750842	442.5
1306	4.48043e+02	1.30600e+03	0.0747715	443.0
1307	4.48480e+02	1.30700e+03	0.0744693	443.5
1308	4.49034e+02	1.30800e+03	0.0742005	444.0
1309	4.49499e+02	1.30900e+03	0.0739311	444.5
1310	4.49821e+02	1.31000e+03	0.0736716	445.0
1311	4.50344e+02	1.31100e+03	0.073421	445.5
1312	4.50761e+02	1.31200e+03	0.0732232	446.0
1313	4.51185e+02	1.31300e+03	0.0730195	446.5
1314	4.51599e+02	1.31400e+03	0.07283	447.0
1315	4.52069e+02	1.31500e+03	0.0726536	447.5
1316	4.52541e+02	1.31600e+03	0.0725395	448.0
1317	4.52994e+02	1.31700e+03	0.0724148	448.5
1318	4.53495e+02	1.31800e+03	0.0722939	449.0
1319	4.53989e+02	1.31900e+03	0.072177	449.5
1320	4.54480e+02	1.32000e+03	0.0720973	450.0
1321	4.54934e+02	1.32100e+03	0.0719958	450.5
1322	4.55404e+02	1.32200e+03	0.0718907	451.0
1323	4.55880e+02	1.32300e+03	0.0717868	451.5
1324	4.56325e+02	1.32400e+03	0.0716802	452.0
1325	4.56769e+02	1.32500e+03	0.0715839	452.5
1326	4.57222e+02	1.32600e+03	0.0714947	453.0
1327	4.57655e+02	1.32700e+03	0.0714093	453.5
1328	4.58171e+02	1.32800e+03	0.0713473	454.0
1329	4.58678e+02	1.32900e+03	0.0712834	454.5
1330	4.59124e+02	1.33000e+03	0.0712245	455.0
1331	4.59590e+02	1.33100e+03	0.0711698	455.5
1332	4.60092e+02	1.33200e+03	0.0711357	456.0
1333	4.60497e+02	1.33300e+03	0.071092	456.5
1334	4.61011e+02	1.33400e+03	0.0710446	457.0
1335	4.61476e+02	1.33500e+03	0.0709944	457.5
1336	4.61999e+02	1.33600e+03	0.0709463	458.0
1337	4.62448e+02	1.33700e+03	0.0709016	458.5
1338	4.62903e+02	1.33800e+03	0.0708646	459.0
1339	4.63379e+02	1.33900e+03	0.0708345	459.5
1340	4.63812e+02	1.34000e+03	0.0708226	460.0
1341	4.64275e+02	1.34100e+03	0.0708144	460.5
1342	4.64751e+02	1.34200e+03	0.0708083	461.0
1343	4.65265e+02	1.34300e+03	0.0708029	461.5
1344	4.65772e+02	1.34400e+03	0.0708157	462.0
1345	4.66286e+02	1.34500e+03	0.0708101	462.5
1346	4.66782e+02	1.34600e+03	0.0708	463.0
1347	4.67269e+02	1.34700e+03	0.0707892	463.5
1348	4.67752e+02	1.34800e+03	0.0707607	464.0
1349	4.68225e+02	1.34900e+03	0.0707393	464.5
1350	4.68695e+02	1.35000e+03	0.070713	465.0
1351	4.69145e+02	1.35100e+03	0.0706817	465.5
1352	4.69607e+02	1.35200e+03	0.0706334	466.0
1353	4.70064e+02	1.35300e+03	0.0705778	466.5
1354	4.70532e+02	1.35400e+03	0.0705191	467.0
1355	4.71012e+02	1.35500e+03	0.0704605	467.5
1356	4.71487e+02	1.35600e+03	0.0703832	468.0
1357	4.71945e+02	1.35700e+03	0.0703268	468.5
1358	4.72450e+02	1.35800e+03	0.0702796	469.0
1359	4.72943e+02	1.35900e+03	0.0702361	469.5
1360	4.73432e+02	1.36000e+03	0.0702199	470.0
1361	4.73911e+02	1.36100e+03	0.0701939	470.5
1362	4.74377e+02	1.36200e+03	0.0701676	471.0
1363	4.74855e+02	1.36300e+03	0.0701424	471.5
1364	4.75329e+02	1.36400e+03	0.0701317	472.0
1365	4.75825e+02	1.36500e+03	0.0701208	472.5
1366	4.76326e+02	1.36600e+03	0.0701145	473.0
1367	4.76824e+02	1.36700e+03	0.0701123	473.5
1368	4.77342e+02	1.36800e+03	0.0701237	474.0
1369	4.77841e+02	1.36900e+03	0.0701302	474.5
1370	4.78357e+02	1.37000e+03	0.0701364	475.0
1371	4.78865e+02	1.37100e+03	0.0701436	475.5
1372	4.79351e+02	1.37200e+03	0.0701587	476.0
1373	4.79866e+02	1.37300e+03	0.0701716	476.5
1374	4.80399e+02	1.37400e+03	0.0701839	477.0
1375	4.80927e+02	1.37500e+03	0.0701956	477.5
1376	4.81440e+02	1.37600e+03	0.0702018	478.0
1377	4.81922e+02	1.37700e+03	0.0702003	478.5
1378	4.82371e+02	1.37800e+03	0.0701915	479.0
1379	4.82819e+02	1.37900e+03	0.0701789	479.5
1380	4.83252e+02	1.38000e+03	0.0701491	480.0
1381	4.83693e+02	1.38100e+03	0.0701288	480.5
1382	4.84134e+02	1.38200e+03	0.0701114	481.0
1383	4.84579e+02	1.38300e+03	0.0700946	481.5
1384	4.85040e+02	1.38400e+03	0.0700784	482.0
1385	4.85518e+02	1.38500e+03	0.0700638	482.5
1386	4.86000e+02	1.38600e+03	0.0700504	483.0
1387	4.86487e+02	1.38700e+03	0.0700382	483.5
1388	4.86978e+02	1.38800e+03	0.0700376	484.0
1389	4.87458e+02	1.38900e+03	0.0700363	484.5
1390	4.87997e+02	1.39000e+03	0.0700351	485.0
1391	4.88503e+02	1.39100e+03	0.0700331	485.5
1392	4.88975e+02	1.39200e+03	0.0700245	486.0
1393	4.89660e+02	1.39300e+03	0.0700044	486.5
1394	4.90369e+02	1.39400e+03	0.0699754	487.0
1395	4.90820e+02	1.39500e+03	0.0699418	487.5
1396	4.91300e+02	1.39600e+03	0.0698849	488.0
1397	4.91956e+02	1.39700e+03	0.0698445	488.5
1398	4.92569e+02	1.39800e+03	0.0698098	489.0
1399	4.93127e+02	1.39900e+03	0.0697768	489.5
1400	4.93428e+02	1.40000e+03	0.0697505	490.0
1401	4.93824e+02	1.40100e+03	0.06972	490.5
1402	4.94263e+02	1.40200e+03	0.0696856	491.0
1403	4.94798e+02	1.40300e+03	0.0696486	491.5
1404	4.95329e+02	1.40400e+03	0.0696132	492.0
1405	4.95782e+02	1.40500e+03	0.0695794	492.5
1406	4.96309e+02	1.40600e+03	0.069549	493.0
1407	4.96807e+02	1.40700e+03	0.0695217	493.5
1408	4.97295e+02	1.40800e+03	0.0695015	494.0
1409	4.97784e+02	1.40900e+03	0.0694841	494.5
1410	4.98310e+02	1.41000e+03	0.0694687	495.0
1411	4.98835e+02	1.41100e+03	0.069454	495.5
1412	4.99333e+02	1.41200e+03	0.069454	496.0
1413	4.99842e+02	1.41300e+03	0.0694482	496.5
1414	5.00303e+02	1.41400e+03	0.0694432	497.0
1415	5.00796e+02	1.41500e+03	0.0694396	497.5
1416	5.01270e+02	1.41600e+03	0.0694384	498.0
1417	5.01765e+02	1.41700e+03	0.0694342	498.5
1418	5.02267e+02	1.41800e+03	0.0694265	499.0
1419	5.02766e+02	1.41900e+03	0.0694167	499.5
1420	5.03276e+02	1.42000e+03	0.0694054	500.0
1421	5.03789e+02	1.42100e+03	0.0693958	500.5
1422	5.04286e+02	1.42200e+03	0.0693899	501.0
1423	5.04832e+02	1.42300e+03	0.0693874	501.5
1424	5.05367e+02	1.42400e+03	0.0693881	502.0
1425	5.05829e+02	1.42500e+03	0.0693886	502.5
1426	5.06309e+02	1.42600e+03	0.0693851	503.0
1427	5.06833e+02	1.42700e+03	0.0693774	503.5
1428	5.07365e+02	1.42800e+03	0.0693622	504.0
1429	5.07830e+02	1.42900e+03	0.0693398	504.5
1430	5.08341e+02	1.43000e+03	0.0693162	505.0
1431	5.08806e+02	1.43100e+03	0.0692933	505.5
1432	5.09309e+02	1.43200e+03	0.0692575	506.0
1433	5.09773e+02	1.43300e+03	0.0692398	506.5
1434	5.10258e+02	1.43400e+03	0.0692313	507.0
1435	5.10766e+02	1.43500e+03	0.0692275	507.5
1436	5.11270e+02	1.43600e+03	0.0692549	508.0
1437	5.11750e+02	1.43700e+03	0.0692753	508.5
1438	5.12213e+02	1.43800e+03	0.0693001	509.0
1439	5.12671e+02	1.43900e+03	0.0693295	509.5
1440	5.13185e+02	1.44000e+03	0.069377	510.0
1441	5.13650e+02	1.44100e+03	0.0694159	510.5
1442	5.14086e+02	1.44200e+03	0.06945	511.0
1443	5.14496e+02	1.44300e+03	0.0694801	511.5
1444	5.14952e+02	1.44400e+03	0.0694978	512.0
1445	5.15432e+02	1.44500e+03	0.0695065	512.5
1446	5.15909e+02	1.44600e+03	0.0695067	513.0
1447	5.16387e+02	1.44700e+03	0.0695016	513.5
1448	5.16870e+02	1.44800e+03	0.0694651	514.0
1449	5.17364e+02	1.44900e+03	0.0694439	514.5
1450	5.17879e+02	1.45000e+03	0.0694245	515.0
1451	5.18413e+02	1.45100e+03	0.0694036	515.5
1452	5.18886e+02	1.45200e+03	0.0693764	516.0
1453	5.19347e+02	1.45300e+03	0.0693488	516.5
1454	5.19834e+02	1.45400e+03	0.0693202	517.0
1455	5.20310e+02	1.45500e+03	0.0692922	517.5
1456	5.20803e+02	1.45600e+03	0.0692703	518.0
1457	5.21294e+02	1.45700e+03	0.0692576	518.5
1458	5.21796e+02	1.45800e+03	0.0692521	519.0
1459	5.22279e+02	1.45900e+03	0.0692504	519.5
1460	5.22777e+02	1.46000e+03	0.0692653	520.0
1461	5.23289e+02	1.46100e+03	0.0692659	520.5
1462	5.23801e+02	1.46200e+03	0.0692598	521.0
1463	5.24317e+02	1.46300e+03	0.0692503	521.5
1464	5.24809e+02	1.46400e+03	0.0692291	522.0
1465	5.25312e+02	1.46500e+03	0.0692114	522.5
1466	5.25824e+02	1.46600e+03	0.0691946	523.0
1467	5.26300e+02	1.46700e+03	0.0691774	523.5
1468	5.26787e+02	1.46800e+03	0.0691517	524.0
1469	5.27287e+02	1.46900e+03	0.0691292	524.5
1470	5.27781e+02	1.47000e+03	0.0691065	525.0
1471	5.28296e+02	1.47100e+03	0.0690838	525.5
1472	5.28802e+02	1.47200e+03	0.0690688	526.0
1473	5.29291e+02	1.47300e+03	0.0690591	526.5
1474	5.29806e+02	1.47400e+03	0.0690562	527.0
1475	5.30314e+02	1.47500e+03	0.0690578	527.5
1476	5.30808e+02	1.47600e+03	0.0690782	528.0
1477	5.31309e+02	1.47700e+03	0.0690927	528.5
1478	5.31857e+02	1.47800e+03	0.0691078	529.0
1479	5.32586e+02	1.47900e+03	0.0691248	529.5
1480	5.33067e+02	1.48000e+03	0.0691556	530.0
1481	5.33596e+02	1.48100e+03	0.0691839	530.5
1482	5.34072e+02	1.48200e+03	0.0692149	531.0
1483	5.34567e+02	1.48300e+03	0.0692485	531.5
1484	5.35057e+02	1.48400e+03	0.0692815	532.0
1485	5.35585e+02	1.48500e+03	0.0693033	532.5
1486	5.36092e+02	1.48600e+03	0.0693147	533.0
1487	5.36572e+02	1.48700e+03	0.0693189	533.5
1488	5.37106e+02	1.48800e+03	0.0692979	534.0
1489	5.37618e+02	1.48900e+03	0.0692813	534.5
1490	5.38116e+02	1.49000e+03	0.0692622	535.0
1491	5.38588e+02	1.49100e+03	0.0692411	535.5
1492	5.39111e+02	1.49200e+03	0.069202	536.0
1493	5.39590e+02	1.49300e+03	0.0691717	536.5
1494	5.40056e+02	1.49400e+03	0.0691414	537.0
1495	5.40490e+02	1.49500e+03	0.0691106	537.5
1496	5.41001e+02	1.49600e+03	0.0690869	538.0
1497	5.41612e+02	1.49700e+03	0.0690683	538.5
1498	5.42370e+02	1.49800e+03	0.0690581	539.0
1499	5.42566e+02	1.49900e+03	0.069054	539.5
1500	5.42892e+02	1.50000e+03	0.0690745	540.0
1501	5.43274e+02	1.50100e+03	0.0690926	540.5
1502	5.43663e+02	1.50200e+03	0.0691109	541.0
1503	5.44087e+02	1.50300e+03	0.0691285	541.5
1504	5.44528e+02	1.50400e+03	0.0691574	542.0
1505	5.44977e+02	1.50500e+03	0.0691728	542.5
1506	5.45443e+02	1.50600e+03	0.0691857	543.0
1507	5.45910e+02	1.50700e+03	0.0691989	543.5
1508	5.46393e+02	1.50800e+03	0.0691981	544.0
1509	5.46862e+02	1.50900e+03	0.0692078	544.5
1510	5.47332e+02	1.51000e+03	0.06922	545.0
1511	5.47808e+02	1.51100e+03	0.0692322	545.5
1512	5.48301e+02	1.51200e+03	0.06925	546.0
1513	5.48784e+02	1.51300e+03	0.0692623	546.5
1514	5.49266e+02	1.51400e+03	0.0692731	547.0
1515	5.49768e+02	1.51500e+03	0.0692837	547.5
1516	5.50264e+02	1.51600e+03	0.0692873	548.0
1517	5.50754e+02	1.51700e+03	0.0692909	548.5
1518	5.51237e+02	1.51800e+03	0.06929	549.0
1519	5.51730e+02	1.51900e+03	0.0692848	549.5
1520	5.52222e+02	1.52000e+03	0.0692657	550.0
1521	5.52701e+02	1.52100e+03	0.0692471	550.5
1522	5.53199e+02	1.52200e+03	0.0692282	551.0
1523	5.53698e+02	1.52300e+03	0.0692099	551.5
1524	5.54191e+02	1.52400e+03	0.0691875	552.0
1525	5.54675e+02	1.52500e+03	0.0691767	552.5
1526	5.55172e+02	1.52600e+03	0.0691718	553.0
1527	5.55667e+02	1.52700e+03	0.0691693	553.5
1528	5.56171e+02	1.52800e+03	0.0691866	554.0
1529	5.56668e+02	1.52900e+03	0.0691945	554.5
1530	5.57164e+02	1.53000e+03	0.069201	555.0
1531	5.57653e+02	1.53100e+03	0.0692081	555.5
1532	5.58145e+02	1.53200e+03	0.0692187	556.0
1533	5.58627e+02	1.53300e+03	0.0692295	556.5
1534	5.59115e+02	1.53400e+03	0.06924	557.0
1535	5.59589e+02	1.53500e+03	0.0692492	557.5
1536	5.60075e+02	1.53600e+03	0.0692502	558.0
1537	5.60560e+02	1.53700e+03	0.0692435	558.5
1538	5.61047e+02	1.53800e+03	0.0692293	559.0
1539	5.61540e+02	1.53900e+03	0.0692108	559.5
1540	5.62032e+02	1.54000e+03	0.0691716	560.0
1541	5.62508e+02	1.54100e+03	0.0691436	560.5
1542	5.62997e+02	1.54200e+03	0.069119	561.0
1543	5.63490e+02	1.54300e+03	0.0690954	561.5
1544	5.63973e+02	1.54400e+03	0.069075	562.0
1545	5.64468e+02	1.54500e+03	0.0690569	562.5
1546	5.64948e+02	1.54600e+03	0.0690405	563.0
1547	5.65432e+02	1.54700e+03	0.0690253	563.5
1548	5.65928e+02	1.54800e+03	0.069019	564.0
1549	5.66415e+02	1.54900e+03	0.0690087	564.5
1550	5.66905e+02	1.55000e+03	0.0689973	565.0
1551	5.67387e+02	1.55100e+03	0.0689851	565.5
1552	5.67869e+02	1.55200e+03	0.0689681	566.0
1553	5.68370e+02	1.55300e+03	0.0689482	566.5
1554	5.68845e+02	1.55400e+03	0.0689255	567.0
1555	5.69343e+02	1.55500e+03	0.0689014	567.5
1556	5.69844e+02	1.55600e+03	0.0688712	568.0
1557	5.70352e+02	1.55700e+03	0.0688503	568.5
1558	5.70856e+02	1.55800e+03	0.0688364	569.0
1559	5.71367e+02	1.55900e+03	0.0688263	569.5
1560	5.71876e+02	1.56000e+03	0.0688259	570.0
1561	5.72367e+02	1.56100e+03	0.0688194	570.5
1562	5.72882e+02	1.56200e+03	0.0688105	571.0
1563	5.73380e+02	1.56300e+03	0.068801	571.5
1564	5.73881e+02	1.56400e+03	0.0687923	572.0
1565	5.74394e+02	1.56500e+03	0.0687821	572.5
1566	5.74915e+02	1.56600e+03	0.0687741	573.0
1567	5.75429e+02	1.56700e+03	0.0687684	573.5
1568	5.75948e+02	1.56800e+03	0.0687656	574.0
1569	5.76472e+02	1.56900e+03	0.0687664	574.5
1570	5.77016e+02	1.57000e+03	0.0687684	575.0
1571	5.77596e+02	1.57100e+03	0.0687709	575.5
1572	5.78144e+02	1.57200e+03	0.0687868	576.0
1573	5.78686e+02	1.57300e+03	0.0687992	576.5
1574	5.79201e+02	1.57400e+03	0.0688124	577.0
1575	5.79715e+02	1.57500e+03	0.0688261	577.5
1576	5.80210e+02	1.57600e+03	0.0688411	578.0
1577	5.80734e+02	1.57700e+03	0.0688521	578.5
1578	5.81286e+02	1.57800e+03	0.0688584	579.0
1579	5.81820e+02	1.57900e+03	0.0688612	579.5
1580	5.82313e+02	1.58000e+03	0.0688494	580.0
1581	5.82773e+02	1.58100e+03	0.0688369	580.5
1582	5.83240e+02	1.58200e+03	0.0688231	581.0
1583	5.83716e+02	1.58300e+03	0.0688089	581.5
1584	5.84200e+02	1.58400e+03	0.0687816	582.0
1585	5.84683e+02	1.58500e+03	0.068764	582.5
1586	5.85179e+02	1.58600e+03	0.0687485	583.0
1587	5.85675e+02	1.58700e+03	0.0687331	583.5
1588	5.86168e+02	1.58800e+03	0.0687237	584.0
1589	5.86653e+02	1.58900e+03	0.0687117	584.5
1590	5.87157e+02	1.59000e+03	0.0687024	585.0
1591	5.87649e+02	1.59100e+03	0.0686959	585.5
1592	5.88133e+02	1.59200e+03	0.0686934	586.0
1593	5.88618e+02	1.59300e+03	0.0686904	586.5
1594	5.89080e+02	1.59400e+03	0.0686848	587.0
1595	5.89557e+02	1.59500e+03	0.0686768	587.5
1596	5.90035e+02	1.59600e+03	0.0686666	588.0
1597	5.90530e+02	1.59700e+03	0.06865	588.5
1598	5.91000e+02	1.59800e+03	0.0686296	589.0
1599	5.91468e+02	1.59900e+03	0.0686078	589.5
1600	5.91978e+02	1.60000e+03	0.0685721	590.0
1601	5.92502e+02	1.60100e+03	0.0685452	590.5
1602	5.92990e+02	1.60200e+03	0.0685194	591.0
1603	5.93451e+02	1.60300e+03	0.068493	591.5
1604	5.93928e+02	1.60400e+03	0.0684737	592.0
1605	5.94401e+02	1.60500e+03	0.0684578	592.5
1606	5.94886e+02	1.60600e+03	0.0684499	593.0
1607	5.95388e+02	1.60700e+03	0.0684485	593.5
1608	5.95865e+02	1.60800e+03	0.0684748	594.0
1609	5.96365e+02	1.60900e+03	0.0685032	594.5
1610	5.96848e+02	1.61000e+03	0.0685351	595.0
1611	5.97325e+02	1.61100e+03	0.0685673	595.5
1612	5.97814e+02	1.61200e+03	0.0686197	596.0
1613	5.98295e+02	1.61300e+03	0.0686536	596.5
1614	5.98785e+02	1.61400e+03	0.0686829	597.0
1615	5.99261e+02	1.61500e+03	0.0687115	597.5
1616	5.99757e+02	1.61600e+03	0.0687287	598.0
1617	6.00275e+02	1.61700e+03	0.0687599	598.5
1618	6.00793e+02	1.61800e+03	0.0687961	599.0
1619	6.01296e+02	1.61900e+03	0.0688335	599.5
1620	6.02221e+02	1.62000e+03	0.0688801	600.0
1621	6.02705e+02	1.62100e+03	0.0689165	600.5
1622	6.03323e+02	1.62200e+03	0.0689481	601.0
1623	6.03821e+02	1.62300e+03	0.0689775	601.5
1624	6.04405e+02	1.62400e+03	0.0689881	602.0
1625	6.05238e+02	1.62500e+03	0.068997	602.5
1626	6.05727e+02	1.62600e+03	0.0689984	603.0
1627	6.06177e+02	1.62700e+03	0.0689931	603.5
1628	6.06625e+02	1.62800e+03	0.0689498	604.0
1629	6.07107e+02	1.62900e+03	0.0689076	604.5
1630	6.07591e+02	1.63000e+03	0.0688613	605.0
1631	6.08064e+02	1.63100e+03	0.0688143	605.5
1632	6.08547e+02	1.63200e+03	0.0687509	606.0
1633	6.09031e+02	1.63300e+03	0.0687077	606.5
1634	6.09497e+02	1.63400e+03	0.0686699	607.0
1635	6.09975e+02	1.63500e+03	0.0686326	607.5
1636	6.10451e+02	1.63600e+03	0.0686089	608.0
1637	6.10917e+02	1.63700e+03	0.0685684	608.5
1638	6.11386e+02	1.63800e+03	0.0685228	609.0
1639	6.11875e+02	1.63900e+03	0.0684763	609.5
1640	6.12373e+02	1.64000e+03	0.0684239	610.0
1641	6.12845e+02	1.64100e+03	0.0683888	610.5
1642	6.13340e+02	1.64200e+03	0.0683649	611.0
1643	6.13803e+02	1.64300e+03	0.0683477	611.5
1644	6.14270e+02	1.64400e+03	0.0683699	612.0
1645	6.14758e+02	1.64500e+03	0.0683864	612.5
1646	6.15243e+02	1.64600e+03	0.0684084	613.0
1647	6.15745e+02	1.64700e+03	0.0684358	613.5
1648	6.16254e+02	1.64800e+03	0.0685002	614.0
1649	6.16757e+02	1.64900e+03	0.0685556	614.5
1650	6.17259e+02	1.65000e+03	0.0686142	615.0
1651	6.17759e+02	1.65100e+03	0.0686758	615.5
1652	6.18268e+02	1.65200e+03	0.0687467	616.0
1653	6.18783e+02	1.65300e+03	0.0688026	616.5
1654	6.19310e+02	1.65400e+03	0.0688462	617.0
1655	6.19820e+02	1.65500e+03	0.0688815	617.5
1656	6.20325e+02	1.65600e+03	0.0688763	618.0
1657	6.20830e+02	1.65700e+03	0.0688683	618.5
1658	6.21327e+02	1.65800e+03	0.0688508	619.0
1659	6.21836e+02	1.65900e+03	0.0688262	619.5
1660	6.22361e+02	1.66000e+03	0.068753	620.0
1661	6.22863e+02	1.66100e+03	0.068702	620.5
1662	6.23369e+02	1.66200e+03	0.068654	621.0
1663	6.23900e+02	1.66300e+03	0.068606	621.5
1664	6.24420e+02	1.66400e+03	0.06857	622.0
1665	6.24971e+02	1.66500e+03	0.0685481	622.5
1666	6.25452e+02	1.66600e+03	0.0685421	623.0
1667	6.25941e+02	1.66700e+03	0.0685468	623.5
1668	6.26432e+02	1.66800e+03	0.0686001	624.0
1669	6.26932e+02	1.66900e+03	0.0686386	624.5
1670	6.27437e+02	1.67000e+03	0.0686714	625.0
1671	6.27939e+02	1.67100e+03	0.0687002	625.5
1672	6.28430e+02	1.67200e+03	0.0687218	626.0
1673	6.28909e+02	1.67300e+03	0.0687185	626.5
1674	6.29383e+02	1.67400e+03	0.0687034	627.0
1675	6.29868e+02	1.67500e+03	0.0686825	627.5
1676	6.30363e+02	1.67600e+03	0.0686056	628.0
1677	6.30868e+02	1.67700e+03	0.0685546	628.5
1678	6.31376e+02	1.67800e+03	0.0685071	629.0
1679	6.31874e+02	1.67900e+03	0.0684603	629.5
1680	6.32349e+02	1.68000e+03	0.0684224	630.0
1681	6.32831e+02	1.68100e+03	0.0683909	630.5
1682	6.33324e+02	1.68200e+03	0.0683688	631.0
1683	6.33801e+02	1.68300e+03	0.0683535	631.5
1684	6.34289e+02	1.68400e+03	0.0683693	632.0
1685	6.34774e+02	1.68500e+03	0.0683809	632.5
1686	6.35237e+02	1.68600e+03	0.0683949	633.0
1687	6.35717e+02	1.68700e+03	0.0684105	633.5
1688	6.36204e+02	1.68800e+03	0.0684482	634.0
1689	6.36681e+02	1.68900e+03	0.0684752	634.5
1690	6.37147e+02	1.69000e+03	0.0685013	635.0
1691	6.37636e+02	1.69100e+03	0.0685273	635.5
1692	6.38113e+02	1.69200e+03	0.0685437	636.0
1693	6.38602e+02	1.69300e+03	0.0685565	636.5
1694	6.39078e+02	1.69400e+03	0.0685614	637.0
1695	6.39561e+02	1.69500e+03	0.0685597	637.5
1696	6.40046e+02	1.69600e+03	0.0685238	638.0
1697	6.40528e+02	1.69700e+03	0.0684868	638.5
1698	6.41012e+02	1.69800e+03	0.0684484	639.0
1699	6.41497e+02	1.69900e+03	0.0684107	639.5
1700	6.41975e+02	1.70000e+03	0.0683565	640.0
1701	6.42460e+02	1.70100e+03	0.0683252	640.5
1702	6.42941e+02	1.70200e+03	0.0683024	641.0
1703	6.43423e+02	1.70300e+03	0.0682827	641.5
1704	6.43911e+02	1.70400e+03	0.0682915	642.0
1705	6.44386e+02	1.70500e+03	0.0682812	642.5
1706	6.44869e+02	1.70600e+03	0.0682632	643.0
1707	6.45365e+02	1.70700e+03	0.0682414	643.5
1708	6.45852e+02	1.70800e+03	0.0682102	644.0
1709	6.46342e+02	1.70900e+03	0.0681855	644.5
1710	6.46834e+02	1.71000e+03	0.0681632	645.0
1711	6.47320e+02	1.71100e+03	0.0681413	645.5
1712	6.47824e+02	1.71200e+03	0.0681215	646.0
1713	6.48325e+02	1.71300e+03	0.0681066	646.5
1714	6.48825e+02	1.71400e+03	0.068097	647.0
1715	6.49315e+02	1.71500e+03	0.0680918	647.5
1716	6.49803e+02	1.71600e+03	0.0681096	648.0
1717	6.50305e+02	1.71700e+03	0.0681262	648.5
1718	6.50794e+02	1.71800e+03	0.0681464	649.0
1719	6.51295e+02	1.71900e+03	0.0681684	649.5
1720	6.51780e+02	1.72000e+03	0.0682014	650.0
1721	6.52275e+02	1.72100e+03	0.0682171	650.5
1722	6.52771e+02	1.72200e+03	0.0682232	651.0
1723	6.53261e+02	1.72300e+03	0.0682258	651.5
1724	6.53758e+02	1.72400e+03	0.0682127	652.0
1725	6.54258e+02	1.72500e+03	0.06821	652.5
1726	6.54741e+02	1.72600e+03	0.0682087	653.0
1727	6.55243e+02	1.72700e+03	0.0682067	653.5
1728	6.55740e+02	1.72800e+03	0.0682022	654.0
1729	6.56238e+02	1.72900e+03	0.068194	654.5
1730	6.56728e+02	1.73000e+03	0.0681823	655.0
1731	6.57208e+02	1.73100e+03	0.0681682	655.5
1732	6.57703e+02	1.73200e+03	0.0681494	656.0
1733	6.58200e+02	1.73300e+03	0.0681381	656.5
1734	6.58697e+02	1.73400e+03	0.06813	657.0
1735	6.59183e+02	1.73500e+03	0.0681231	657.5
1736	6.59682e+02	1.73600e+03	0.0681133	658.0
1737	6.60178e+02	1.73700e+03	0.0680943	658.5
1738	6.60677e+02	1.73800e+03	0.0680652	659.0
1739	6.61165e+02	1.73900e+03	0.0680286	659.5
1740	6.61663e+02	1.74000e+03	0.0679644	660.0
1741	6.62149e+02	1.74100e+03	0.0679084	660.5
1742	6.62658e+02	1.74200e+03	0.0678575	661.0
1743	6.63161e+02	1.74300e+03	0.0678103	661.5
1744	6.63642e+02	1.74400e+03	0.0677685	662.0
1745	6.64128e+02	1.74500e+03	0.0677441	662.5
1746	6.64633e+02	1.74600e+03	0.0677299	663.0
1747	6.65119e+02	1.74700e+03	0.0677215	663.5
1748	6.65613e+02	1.74800e+03	0.0677658	664.0
1749	6.66102e+02	1.74900e+03	0.0677976	664.5
1750	6.66594e+02	1.75000e+03	0.0678359	665.0
1751	6.67092e+02	1.75100e+03	0.0678804	665.5
1752	6.67568e+02	1.75200e+03	0.0679455	666.0
1753	6.68058e+02	1.75300e+03	0.0679959	666.5
1754	6.68550e+02	1.75400e+03	0.068038	667.0
1755	6.69041e+02	1.75500e+03	0.0680758	667.5
1756	6.69530e+02	1.75600e+03	0.0680924	668.0
1757	6.70007e+02	1.75700e+03	0.068103	668.5
1758	6.70491e+02	1.75800e+03	0.0681089	669.0
1759	6.70975e+02	1.75900e+03	0.0681128	669.5
1760	6.71462e+02	1.76000e+03	0.0680895	670.0
1761	6.71949e+02	1.76100e+03	0.0680819	670.5
1762	6.72439e+02	1.76200e+03	0.0680739	671.0
1763	6.72929e+02	1.76300e+03	0.0680632	671.5
1764	6.73423e+02	1.76400e+03	0.0680489	672.0
1765	6.73918e+02	1.76500e+03	0.0680269	672.5
1766	6.74406e+02	1.76600e+03	0.0680026	673.0
1767	6.74896e+02	1.76700e+03	0.0679784	673.5
1768	6.75391e+02	1.76800e+03	0.0679489	674.0
1769	6.75893e+02	1.76900e+03	0.0679348	674.5
1770	6.76378e+02	1.77000e+03	0.0679271	675.0
1771	6.76866e+02	1.77100e+03	0.0679218	675.5
1772	6.77364e+02	1.77200e+03	0.0679399	676.0
1773	6.77851e+02	1.77300e+03	0.0679482	676.5
1774	6.78355e+02	1.77400e+03	0.0679584	677.0
1775	6.78826e+02	1.77500e+03	0.0679715	677.5
1776	6.79314e+02	1.77600e+03	0.0679904	678.0
1777	6.79811e+02	1.77700e+03	0.0680079	678.5
1778	6.80302e+02	1.77800e+03	0.0680225	679.0
1779	6.80802e+02	1.77900e+03	0.068034	679.5
1780	6.81287e+02	1.78000e+03	0.0680385	680.0
1781	6.81795e+02	1.78100e+03	0.0680386	680.5
1782	6.82287e+02	1.78200e+03	0.068037	681.0
1783	6.82791e+02	1.78300e+03	0.0680351	681.5
1784	6.83280e+02	1.78400e+03	0.0680233	682.0
1785	6.83776e+02	1.78500e+03	0.068022	682.5
1786	6.84269e+02	1.78600e+03	0.0680217	683.0
1787	6.84760e+02	1.78700e+03	0.0680209	683.5
1788	6.85256e+02	1.78800e+03	0.0680249	684.0
1789	6.85750e+02	1.78900e+03	0.0680211	684.5
1790	6.86239e+02	1.79000e+03	0.0680185	685.0
1791	6.86733e+02	1.79100e+03	0.0680186	685.5
1792	6.87216e+02	1.79200e+03	0.0680165	686.0
1793	6.87718e+02	1.79300e+03	0.0680247	686.5
1794	6.88221e+02	1.79400e+03	0.0680382	687.0
1795	6.88432e+02	1.79500e+03	0.0680533	687.5
1796	6.88623e+02	1.79600e+03	0.0680851	688.0
1797	6.88928e+02	1.79700e+03	0.0681061	688.5
1798	6.89272e+02	1.79800e+03	0.0681227	689.0
1799	6.89640e+02	1.79900e+03	0.0681378	689.5
1800	6.89998e+02	1.80000e+03	0.0681565	690.0
1801	6.90336e+02	1.80100e+03	0.0681774	690.5
1802	6.90664e+02	1.80200e+03	0.0681939	691.0
1803	6.90986e+02	1.80300e+03	0.0682049	691.5
1804	6.91289e+02	1.80400e+03	0.068209	692.0
1805	6.91593e+02	1.80500e+03	0.0682027	692.5
1806	6.91879e+02	1.80600e+03	0.0681873	693.0
1807	6.92164e+02	1.80700e+03	0.0681669	693.5
1808	6.92437e+02	1.80800e+03	0.0681219	694.0
1809	6.92707e+02	1.80900e+03	0.0680946	694.5
1810	6.92951e+02	1.81000e+03	0.0680742	695.0
1811	6.93199e+02	1.81100e+03	0.0680568	695.5
1812	6.93442e+02	1.81200e+03	0.0680511	696.0
1813	6.93674e+02	1.81300e+03	0.0680445	696.5
1814	6.93889e+02	1.81400e+03	0.0680407	697.0
1815	6.94102e+02	1.81500e+03	0.068039	697.5
1816	6.94314e+02	1.81600e+03	0.0680515	698.0
1817	6.94522e+02	1.81700e+03	0.0680619	698.5
1818	6.94736e+02	1.81800e+03	0.0680775	699.0
1819	6.94934e+02	1.81900e+03	0.0680976	699.5
1820	6.95123e+02	1.82000e+03	0.0681235	700.0
1821	6.95316e+02	1.82100e+03	0.0681408	700.0
1822	6.95496e+02	1.82200e+03	0.0681517	700.0
1823	6.95675e+02	1.82300e+03	0.068159	700.0
1824	6.95840e+02	1.82400e+03	0.0681549	700.0
1825	6.96030e+02	1.82500e+03	0.0681533	700.0
1826	6.96195e+02	1.82600e+03	0.0681549	700.0
1827	6.96348e+02	1.82700e+03	0.0681588	700.0
1828	6.96493e+02	1.82800e+03	0.0681566	700.0
1829	6.96638e+02	1.82900e+03	0.0681594	700.0
1830	6.96777e+02	1.83000e+03	0.0681612	700.0
1831	6.96912e+02	1.83100e+03	0.0681613	700.0
1832	6.97038e+02	1.83200e+03	0.0681629	700.0
1833	6.97157e+02	1.83300e+03	0.0681563	700.0
1834	6.97290e+02	1.83400e+03	0.0681471	700.0
1835	6.97410e+02	1.83500e+03	0.0681383	700.0
1836	6.97520e+02	1.83600e+03	0.0681185	700.0
1837	6.97638e+02	1.83700e+03	0.0681054	700.0
1838	6.97750e+02	1.83800e+03	0.0680918	700.0
1839	6.97854e+02	1.83900e+03	0.0680763	700.0
1840	6.97951e+02	1.84000e+03	0.0680624	700.0
1841	6.98059e+02	1.84100e+03	0.0680464	700.0
1842	6.98154e+02	1.84200e+03	0.0680332	700.0
1843	6.98242e+02	1.84300e+03	0.0680237	700.0
1844	6.98332e+02	1.84400e+03	0.0680212	700.0
1845	6.98423e+02	1.84500e+03	0.0680247	700.0
1846	6.98500e+02	1.84600e+03	0.0680304	700.0
1847	6.98572e+02	1.84700e+03	0.0680374	700.0
1848	6.98641e+02	1.84800e+03	0.0680651	700.0
1849	6.98712e+02	1.84900e+03	0.0680831	700.0
1850	6.98785e+02	1.85000e+03	0.0680998	700.0
1851	6.98864e+02	1.85100e+03	0.0681167	700.0
1852	6.98938e+02	1.85200e+03	0.0681301	700.0
1853	6.98993e+02	1.85300e+03	0.0681429	700.0
1854	6.99063e+02	1.85400e+03	0.0681524	700.0
1855	6.99137e+02	1.85500e+03	0.0681581	700.0
1856	6.99197e+02	1.85600e+03	0.0681472	700.0
1857	6.99259e+02	1.85700e+03	0.0681349	700.0
1858	6.99307e+02	1.85800e+03	0.068121	700.0
1859	6.99379e+02	1.85900e+03	0.0681068	700.0
1860	6.99436e+02	1.86000e+03	0.0680798	700.0
1861	6.99486e+02	1.86100e+03	0.0680652	700.0
1862	6.99539e+02	1.86200e+03	0.0680542	700.0
1863	6.99599e+02	1.86300e+03	0.0680435	700.0
1864	6.99645e+02	1.86400e+03	0.0680379	700.0
1865	6.99687e+02	1.86500e+03	0.0680249	700.0
1866	6.99742e+02	1.86600e+03	0.0680105	700.0
1867	6.99793e+02	1.86700e+03	0.0679961	700.0
1868	6.99843e+02	1.86800e+03	0.0679739	700.0
1869	6.99878e+02	1.86900e+03	0.0679567	700.0
1870	6.99926e+02	1.87000e+03	0.0679379	700.0
1871	6.99964e+02	1.87100e+03	0.0679165	700.0
1872	7.00008e+02	1.87200e+03	0.067892	700.0
1873	7.00042e+02	1.87300e+03	0.0678629	700.0
1874	7.00082e+02	1.87400e+03	0.0678318	700.0
1875	7.00114e+02	1.87500e+03	0.0678015	700.0
1876	7.00144e+02	1.87600e+03	0.0677693	700.0
1877	7.00180e+02	1.87700e+03	0.0677522	700.0
1878	7.00214e+02	1.87800e+03	0.0677463	700.0
1879	7.00243e+02	1.87900e+03	0.0677459	700.0
1880	7.00273e+02	1.88000e+03	0.0677756	700.0
1881	7.00307e+02	1.88100e+03	0.0677968	700.0
1882	7.00337e+02	1.88200e+03	0.0678189	700.0
1883	7.00357e+02	1.88300e+03	0.0678425	700.0
1884	7.00383e+02	1.88400e+03	0.067883	700.0
1885	7.00405e+02	1.88500e+03	0.0679173	700.0
1886	7.00420e+02	1.88600e+03	0.0679495	700.0
1887	7.00448e+02	1.88700e+03	0.0679805	700.0
1888	7.00478e+02	1.88800e+03	0.0680071	700.0
1889	7.00509e+02	1.88900e+03	0.0680303	700.0
1890	7.00534e+02	1.89000e+03	0.0680505	700.0
1891	7.00551e+02	1.89100e+03	0.0680699	700.0
1892	7.00573e+02	1.89200e+03	0.0680828	700.0
1893	7.00607e+02	1.89300e+03	0.068101	700.0
1894	7.00626e+02	1.89400e+03	0.0681187	700.0
1895	7.00647e+02	1.89500e+03	0.0681353	700.0
1896	7.00670e+02	1.89600e+03	0.0681524	700.0
1897	7.00690e+02	1.89700e+03	0.0681655	700.0
1898	7.00717e+02	1.89800e+03	0.0681761	700.0
1899	7.00739e+02	1.89900e+03	0.0681853	700.0
1900	7.00751e+02	1.90000e+03	0.0681853	700.0
1901	7.00764e+02	1.90100e+03	0.0681885	700.0
1902	7.00791e+02	1.90200e+03	0.0681904	700.0
1903	7.00803e+02	1.90300e+03	0.0681894	700.0
1904	7.00822e+02	1.90400e+03	0.0681744	700.0
1905	7.00841e+02	1.90500e+03	0.068155	700.0
1906	7.00858e+02	1.90600e+03	0.0681284	700.0
1907	7.00869e+02	1.90700e+03	0.0680977	700.0
1908	7.00896e+02	1.90800e+03	0.0680511	700.0
1909	7.00906e+02	1.90900e+03	0.0680214	700.0
1910	7.00917e+02	1.91000e+03	0.0680009	700.0
1911	7.00932e+02	1.91100e+03	0.0679841	700.0
1912	7.00940e+02	1.91200e+03	0.0679825	700.0
1913	7.00962e+02	1.91300e+03	0.0679772	700.0
1914	7.00964e+02	1.91400e+03	0.0679714	700.0
1915	7.00979e+02	1.91500e+03	0.0679645	700.0
1916	7.00992e+02	1.91600e+03	0.0679562	700.0
1917	7.01007e+02	1.91700e+03	0.0679392	700.0
1918	7.01013e+02	1.91800e+03	0.0679187	700.0
1919	7.01029e+02	1.91900e+03	0.0678967	700.0
1920	7.01041e+02	1.92000e+03	0.0678583	700.0
1921	7.01058e+02	1.92100e+03	0.0678345	700.0
1922	7.01060e+02	1.92200e+03	0.0678178	700.0
1923	7.01069e+02	1.92300e+03	0.0678036	700.0
1924	7.01085e+02	1.92400e+03	0.0678026	700.0
1925	7.01091e+02	1.92500e+03	0.0677989	700.0
1926	7.01094e+02	1.92600e+03	0.0677979	700.0
1927	7.01101e+02	1.92700e+03	0.0678007	700.0
1928	7.01117e+02	1.92800e+03	0.0678237	700.0
1929	7.01121e+02	1.92900e+03	0.0678476	700.0
1930	7.01126e+02	1.93000e+03	0.067875	700.0
1931	7.01129e+02	1.93100e+03	0.0679034	700.0
1932	7.01135e+02	1.93200e+03	0.067947	700.0
1933	7.01138e+02	1.93300e+03	0.067982	700.0
1934	7.01157e+02	1.93400e+03	0.0680159	700.0
1935	7.01156e+02	1.93500e+03	0.0680503	700.0
1936	7.01160e+02	1.93600e+03	0.06808	700.0
1937	7.01166e+02	1.93700e+03	0.0681083	700.0
1938	7.01170e+02	1.93800e+03	0.0681324	700.0
1939	7.01176e+02	1.93900e+03	0.0681534	700.0
1940	7.01185e+02	1.94000e+03	0.0681615	700.0
1941	7.01191e+02	1.94100e+03	0.0681635	700.0
1942	7.01198e+02	1.94200e+03	0.0681584	700.0
1943	7.01210e+02	1.94300e+03	0.0681499	700.0
1944	7.01214e+02	1.94400e+03	0.0681202	700.0
1945	7.01221e+02	1.94500e+03	0.0681046	700.0
1946	7.01214e+02	1.94600e+03	0.0680951	700.0
1947	7.01228e+02	1.94700e+03	0.0680876	700.0
1948	7.01228e+02	1.94800e+03	0.0680861	700.0
1949	7.01236e+02	1.94900e+03	0.0680843	700.0
1950	7.01243e+02	1.95000e+03	0.0680835	700.0
1951	7.01249e+02	1.95100e+03	0.0680832	700.0
1952	7.01250e+02	1.95200e+03	0.0680906	700.0
1953	7.01255e+02	1.95300e+03	0.0680946	700.0
1954	7.01259e+02	1.95400e+03	0.0680987	700.0
1955	7.01267e+02	1.95500e+03	0.0681034	700.0
1956	7.01266e+02	1.95600e+03	0.0681098	700.0
1957	7.01267e+02	1.95700e+03	0.0681153	700.0
1958	7.01276e+02	1.95800e+03	0.0681171	700.0
1959	7.01278e+02	1.95900e+03	0.068116	700.0
1960	7.01282e+02	1.96000e+03	0.0681164	700.0
1961	7.01273e+02	1.96100e+03	0.0681193	700.0
1962	7.01275e+02	1.96200e+03	0.0681239	700.0
1963	7.01280e+02	1.96300e+03	0.0681292	700.0
1964	7.01289e+02	1.96400e+03	0.0681365	700.0
1965	7.01300e+02	1.96500e+03	0.0681423	700.0
1966	7.01288e+02	1.96600e+03	0.0681449	700.0
1967	7.01297e+02	1.96700e+03	0.0681451	700.0
1968	7.01298e+02	1.96800e+03	0.06814	700.0
1969	7.01304e+02	1.96900e+03	0.0681322	700.0
1970	7.01305e+02	1.97000e+03	0.0681222	700.0
1971	7.01305e+02	1.97100e+03	0.0681111	700.0
1972	7.01308e+02	1.97200e+03	0.0680892	700.0
1973	7.01315e+02	1.97300e+03	0.0680733	700.0
1974	7.01322e+02	1.97400e+03	0.0680585	700.0
1975	7.01317e+02	1.97500e+03	0.0680437	700.0
1976	7.01337e+02	1.97600e+03	0.068031	700.0
1977	7.01324e+02	1.97700e+03	0.0680179	700.0
1978	7.01325e+02	1.97800e+03	0.0680055	700.0
1979	7.01332e+02	1.97900e+03	0.0679937	700.0
1980	7.01335e+02	1.98000e+03	0.0679845	700.0
1981	7.01340e+02	1.98100e+03	0.0679751	700.0
1982	7.01338e+02	1.98200e+03	0.0679652	700.0
1983	7.01346e+02	1.98300e+03	0.067955	700.0
1984	7.01337e+02	1.98400e+03	0.0679439	700.0
1985	7.01343e+02	1.98500e+03	0.0679304	700.0
1986	7.01347e+02	1.98600e+03	0.0679156	700.0
1987	7.01357e+02	1.98700e+03	0.0679003	700.0
1988	7.01347e+02	1.98800e+03	0.0678806	700.0
1989	7.01345e+02	1.98900e+03	0.0678647	700.0
1990	7.01349e+02	1.99000e+03	0.0678505	700.0
1991	7.01352e+02	1.99100e+03	0.0678371	700.0
1992	7.01353e+02	1.99200e+03	0.0678342	700.0
1993	7.01361e+02	1.99300e+03	0.0678345	700.0
1994	7.01363e+02	1.99400e+03	0.0678384	700.0
1995	7.01355e+02	1.99500e+03	0.0678453	700.0
1996	7.01360e+02	1.99600e+03	0.0678714	700.0
1997	7.01361e+02	1.99700e+03	0.0678913	700.0
1998	7.01364e+02	1.99800e+03	0.0679096	700.0
1999	7.01369e+02	1.99900e+03	0.0679273	700.0
2000	7.01365e+02	2.00000e+03	0.0679483	700.0
2001	7.01375e+02	2.00100e+03	0.0679632	700.0
2002	7.01366e+02	2.00200e+03	0.0679751	700.0
2003	7.01367e+02	2.00300e+03	0.0679854	700.0
2004	7.01371e+02	2.00400e+03	0.0679847	700.0
2005	7.01366e+02	2.00500e+03	0.0679875	700.0
2006	7.01376e+02	2.00600e+03	0.0679892	700.0
2007	7.01367e+02	2.00700e+03	0.0679896	700.0
2008	7.01376e+02	2.00800e+03	0.0679838	700.0
2009	7.01374e+02	2.00900e+03	0.0679791	700.0
2010	7.01376e+02	2.01000e+03	0.067975	700.0
2011	7.01370e+02	2.01100e+03	0.0679723	700.0
2012	7.01368e+02	2.01200e+03	0.0679745	700.0
2013	7.01377e+02	2.01300e+03	0.0679806	700.0
2014	7.01387e+02	2.01400e+03	0.067988	700.0
2015	7.01375e+02	2.01500e+03	0.0679958	700.0
2016	7.01370e+02	2.01600e+03	0.0680138	700.0
2017	7.01372e+02	2.01700e+03	0.0680237	700.0
2018	7.01389e+02	2.01800e+03	0.0680305	700.0
2019	7.01392e+02	2.01900e+03	0.0680359	700.0
2020	7.01382e+02	2.02000e+03	0.068037	700.0
2021	7.01388e+02	2.02100e+03	0.0680422	700.0
2022	7.01379e+02	2.02200e+03	0.0680459	700.0
2023	7.01387e+02	2.02300e+03	0.0680477	700.0
2024	7.01386e+02	2.02400e+03	0.068045	700.0
2025	7.01387e+02	2.02500e+03	0.0680389	700.0
2026	7.01380e+02	2.02600e+03	0.0680299	700.0
2027	7.01392e+02	2.02700e+03	0.0680191	700.0
2028	7.01392e+02	2.02800e+03	0.0679982	700.0
2029	7.01390e+02	2.02900e+03	0.067987	700.0
2030	7.01388e+02	2.03000e+03	0.067981	700.0
2031	7.01388e+02	2.03100e+03	0.0679769	700.0
2032	7.01383e+02	2.03200e+03	0.06798	700.0
2033	7.01393e+02	2.03300e+03	0.0679811	700.0
2034	7.01388e+02	2.03400e+03	0.0679824	700.0
2035	7.01381e+02	2.03500e+03	0.0679839	700.0
2036	7.01389e+02	2.03600e+03	0.0679899	700.0
2037	7.01376e+02	2.03700e+03	0.0679953	700.0
2038	7.01382e+02	2.03800e+03	0.068004	700.0
2039	7.01383e+02	2.03900e+03	0.068015	700.0
2040	7.01379e+02	2.04000e+03	0.0680262	700.0
2041	7.01381e+02	2.04100e+03	0.0680352	700.0
2042	7.01385e+02	2.04200e+03	0.0680422	700.0
2043	7.01383e+02	2.04300e+03	0.0680478	700.0
2044	7.01379e+02	2.04400e+03	0.0680498	700.0
2045	7.01373e+02	2.04500e+03	0.0680547	700.0
2046	7.01377e+02	2.04600e+03	0.0680616	700.0
2047	7.01380e+02	2.04700e+03	0.0680681	700.0
2048	7.01385e+02	2.04800e+03	0.0680672	700.0
2049	7.01381e+02	2.04900e+03	0.0680621	700.0
2050	7.01379e+02	2.05000e+03	0.0680534	700.0
2051	7.01380e+02	2.05100e+03	0.0680444	700.0
2052	7.01381e+02	2.05200e+03	0.0680317	700.0
2053	7.01372e+02	2.05300e+03	0.0680258	700.0
2054	7.01376e+02	2.05400e+03	0.0680256	700.0
2055	7.01375e+02	2.05500e+03	0.0680292	700.0
2056	7.01378e+02	2.05600e+03	0.0680431	700.0
2057	7.01375e+02	2.05700e+03	0.0680501	700.0
2058	7.01369e+02	2.05800e+03	0.0680517	700.0
2059	7.01379e+02	2.05900e+03	0.0680501	700.0
2060	7.01373e+02	2.06000e+03	0.0680461	700.0
2061	7.01372e+02	2.06100e+03	0.0680417	700.0
2062	7.01371e+02	2.06200e+03	0.0680399	700.0
2063	7.01367e+02	2.06300e+03	0.0680408	700.0
2064	7.01368e+02	2.06400e+03	0.0680397	700.0
2065	7.01376e+02	2.06500e+03	0.0680416	700.0
2066	7.01372e+02	2.06600e+03	0.0680437	700.0
2067	7.01369e+02	2.06700e+03	0.0680453	700.0
2068	7.01372e+02	2.06800e+03	0.0680507	700.0
2069	7.01375e+02	2.06900e+03	0.0680496	700.0
2070	7.01368e+02	2.07000e+03	0.0680451	700.0
2071	7.01362e+02	2.07100e+03	0.0680387	700.0
2072	7.01364e+02	2.07200e+03	0.0680199	700.0
2073	7.01359e+02	2.07300e+03	0.0680039	700.0
2074	7.01372e+02	2.07400e+03	0.0679862	700.0
2075	7.01360e+02	2.07500e+03	0.0679668	700.0
2076	7.01360e+02	2.07600e+03	0.0679382	700.0
2077	7.01358e+02	2.07700e+03	0.0679123	700.0
2078	7.01354e+02	2.07800e+03	0.0678887	700.0
2079	7.01353e+02	2.07900e+03	0.0678679	700.0
2080	7.01347e+02	2.08000e+03	0.0678532	700.0
2081	7.01349e+02	2.08100e+03	0.0678433	700.0
2082	7.01350e+02	2.08200e+03	0.0678374	700.0
2083	7.01349e+02	2.08300e+03	0.0678343	700.0
2084	7.01342e+02	2.08400e+03	0.0678519	700.0
2085	7.01346e+02	2.08500e+03	0.0678621	700.0
2086	7.01341e+02	2.08600e+03	0.0678742	700.0
2087	7.01346e+02	2.08700e+03	0.0678897	700.0
2088	7.01341e+02	2.08800e+03	0.0679126	700.0
2089	7.01341e+02	2.08900e+03	0.0679311	700.0
2090	7.01344e+02	2.09000e+03	0.0679473	700.0
2091	7.01344e+02	2.09100e+03	0.0679622	700.0
2092	7.01337e+02	2.09200e+03	0.0679734	700.0
2093	7.01336e+02	2.09300e+03	0.0679812	700.0
2094	7.01344e+02	2.09400e+03	0.0679885	700.0
2095	7.01345e+02	2.09500e+03	0.0679964	700.0
2096	7.01342e+02	2.09600e+03	0.0679989	700.0
2097	7.01334e+02	2.09700e+03	0.0680092	700.0
2098	7.01345e+02	2.09800e+03	0.0680215	700.0
2099	7.01340e+02	2.09900e+03	0.0680338	700.0
2100	7.01342e+02	2.10000e+03	0.0680525	700.0
2101	7.01335e+02	2.10100e+03	0.0680636	700.0
2102	7.01330e+02	2.10200e+03	0.0680694	700.0
2103	7.01326e+02	2.10300e+03	0.068072	700.0
2104	7.01324e+02	2.10400e+03	0.0680574	700.0
2105	7.01332e+02	2.10500e+03	0.068043	700.0
2106	7.01326e+02	2.10600e+03	0.0680251	700.0
2107	7.01326e+02	2.10700e+03	0.0680036	700.0
2108	7.01327e+02	2.10800e+03	0.067961	700.0
2109	7.01329e+02	2.10900e+03	0.0679276	700.0
2110	7.01322e+02	2.11000e+03	0.0678974	700.0
2111	7.01325e+02	2.11100e+03	0.0678687	700.0
2112	7.01317e+02	2.11200e+03	0.0678436	700.0
2113	7.01318e+02	2.11300e+03	0.0678239	700.0
2114	7.01315e+02	2.11400e+03	0.0678085	700.0
2115	7.01322e+02	2.11500e+03	0.0677956	700.0
2116	7.01325e+02	2.11600e+03	0.0677991	700.0
2117	7.01325e+02	2.11700e+03	0.0677961	700.0
2118	7.01314e+02	2.11800e+03	0.0677925	700.0
2119	7.01323e+02	2.11900e+03	0.067789	700.0
2120	7.01324e+02	2.12000e+03	0.0677869	700.0
2121	7.01312e+02	2.12100e+03	0.0677823	700.0
2122	7.01309e+02	2.12200e+03	0.0677765	700.0
2123	7.01306e+02	2.12300e+03	0.0677701	700.0
2124	7.01306e+02	2.12400e+03	0.0677594	700.0
2125	7.01317e+02	2.12500e+03	0.0677499	700.0
2126	7.01310e+02	2.12600e+03	0.0677396	700.0
2127	7.01310e+02	2.12700e+03	0.0677281	700.0
2128	7.01309e+02	2.12800e+03	0.0677114	700.0
2129	7.01304e+02	2.12900e+03	0.0676947	700.0
2130	7.01307e+02	2.13000e+03	0.0676783	700.0
2131	7.01305e+02	2.13100e+03	0.0676624	700.0
2132	7.01298e+02	2.13200e+03	0.0676466	700.0
2133	7.01302e+02	2.13300e+03	0.0676365	700.0
2134	7.01299e+02	2.13400e+03	0.0676304	700.0
2135	7.01288e+02	2.13500e+03	0.0676268	700.0
2136	7.01295e+02	2.13600e+03	0.0676446	700.0
2137	7.01290e+02	2.13700e+03	0.0676643	700.0
2138	7.01284e+02	2.13800e+03	0.0676895	700.0
2139	7.01291e+02	2.13900e+03	0.0677179	700.0
2140	7.01292e+02	2.14000e+03	0.0677652	700.0
2141	7.01287e+02	2.14100e+03	0.0678	700.0
2142	7.01285e+02	2.14200e+03	0.0678281	700.0
2143	7.01280e+02	2.14300e+03	0.0678521	700.0
2144	7.01283e+02	2.14400e+03	0.0678596	700.0
2145	7.01275e+02	2.14500e+03	0.0678625	700.0
2146	7.01276e+02	2.14600e+03	0.0678579	700.0
2147	7.01269e+02	2.14700e+03	0.067848	700.0
2148	7.01272e+02	2.14800e+03	0.0678078	700.0
2149	7.01277e+02	2.14900e+03	0.0677765	700.0
2150	7.01268e+02	2.15000e+03	0.0677426	700.0
2151	7.01266e+02	2.15100e+03	0.0677065	700.0
2152	7.01266e+02	2.15200e+03	0.0676671	700.0
2153	7.01260e+02	2.15300e+03	0.0676395	700.0
2154	7.01262e+02	2.15400e+03	0.067621	700.0
2155	7.01267e+02	2.15500e+03	0.0676078	700.0
2156	7.01267e+02	2.15600e+03	0.067614	700.0
2157	7.01253e+02	2.15700e+03	0.0676141	700.0
2158	7.01255e+02	2.15800e+03	0.0676153	700.0
2159	7.01257e+02	2.15900e+03	0.0676184	700.0
2160	7.01261e+02	2.16000e+03	0.0676345	700.0
2161	7.01256e+02	2.16100e+03	0.0676514	700.0
2162	7.01262e+02	2.16200e+03	0.0676747	700.0
2163	7.01250e+02	2.16300e+03	0.0677029	700.0
2164	7.01251e+02	2.16400e+03	0.0677473	700.0
2165	7.01243e+02	2.16500e+03	0.067786	700.0
2166	7.01243e+02	2.16600e+03	0.0678225	700.0
2167	7.01246e+02	2.16700e+03	0.0678579	700.0
2168	7.01253e+02	2.16800e+03	0.067895	700.0
2169	7.01246e+02	2.16900e+03	0.0679232	700.0
2170	7.01257e+02	2.17000e+03	0.0679458	700.0
2171	7.01238e+02	2.17100e+03	0.0679649	700.0
2172	7.01246e+02	2.17200e+03	0.0679614	700.0
2173	7.01241e+02	2.17300e+03	0.0679627	700.0
2174	7.01244e+02	2.17400e+03	0.0679611	700.0
2175	7.01236e+02	2.17500e+03	0.0679568	700.0
2176	7.01236e+02	2.17600e+03	0.0679362	700.0
2177	7.01237e+02	2.17700e+03	0.0679194	700.0
2178	7.01241e+02	2.17800e+03	0.0679023	700.0
2179	7.01236e+02	2.17900e+03	0.0678858	700.0
2180	7.01224e+02	2.18000e+03	0.067869	700.0
2181	7.01234e+02	2.18100e+03	0.0678573	700.0
2182	7.01240e+02	2.18200e+03	0.0678471	700.0
2183	7.01228e+02	2.18300e+03	0.0678374	700.0
2184	7.01228e+02	2.18400e+03	0.0678382	700.0
2185	7.01224e+02	2.18500e+03	0.0678334	700.0
2186	7.01218e+02	2.18600e+03	0.0678277	700.0
2187	7.01226e+02	2.18700e+03	0.0678222	700.0
2188	7.01221e+02	2.18800e+03	0.067823	700.0
2189	7.01214e+02	2.18900e+03	0.0678283	700.0
2190	7.01210e+02	2.19000e+03	0.0678349	700.0
2191	7.01223e+02	2.19100e+03	0.0678422	700.0
2192	7.01226e+02	2.19200e+03	0.0678593	700.0
2193	7.01214e+02	2.19300e+03	0.0678695	700.0
2194	7.01203e+02	2.19400e+03	0.0678774	700.0
2195	7.01204e+02	2.19500e+03	0.0678845	700.0
2196	7.01217e+02	2.19600e+03	0.067886	700.0
2197	7.01219e+02	2.19700e+03	0.0678891	700.0
2198	7.01211e+02	2.19800e+03	0.0678918	700.0
2199	7.01204e+02	2.19900e+03	0.067894	700.0
2200	7.01210e+02	2.20000e+03	0.0678934	700.0
2201	7.01211e+02	2.20100e+03	0.067895	700.0
2202	7.01199e+02	2.20200e+03	0.0679006	700.0
2203	7.01210e+02	2.20300e+03	0.0679093	700.0
2204	7.01205e+02	2.20400e+03	0.0679221	700.0
2205	7.01214e+02	2.20500e+03	0.0679337	700.0
2206	7.01204e+02	2.20600e+03	0.0679448	700.0
2207	7.01199e+02	2.20700e+03	0.0679555	700.0
2208	7.01198e+02	2.20800e+03	0.0679685	700.0
2209	7.01196e+02	2.20900e+03	0.0679775	700.0
2210	7.01193e+02	2.21000e+03	0.0679846	700.0
2211	7.01195e+02	2.21100e+03	0.0679908	700.0
2212	7.01183e+02	2.21200e+03	0.0679958	700.0
2213	7.01188e+02	2.21300e+03	0.0680053	700.0
2214	7.01190e+02	2.21400e+03	0.0680142	700.0
2215	7.01196e+02	2.21500e+03	0.0680221	700.0
2216	7.01187e+02	2.21600e+03	0.068031	700.0
2217	7.01187e+02	2.21700e+03	0.0680349	700.0
2218	7.01183e+02	2.21800e+03	0.068036	700.0
2219	7.01180e+02	2.21900e+03	0.0680356	700.0
2220	7.01180e+02	2.22000e+03	0.0680263	700.0
2221	7.01183e+02	2.22100e+03	0.0680239	700.0
2222	7.01178e+02	2.22200e+03	0.0680266	700.0
2223	7.01172e+02	2.22300e+03	0.0680319	700.0
2224	7.01181e+02	2.22400e+03	0.068042	700.0
2225	7.01178e+02	2.22500e+03	0.06805	700.0
2226	7.01178e+02	2.22600e+03	0.0680554	700.0
2227	7.01162e+02	2.22700e+03	0.0680572	700.0
2228	7.01165e+02	2.22800e+03	0.0680517	700.0
2229	7.01170e+02	2.22900e+03	0.0680428	700.0
2230	7.01167e+02	2.23000e+03	0.0680315	700.0
2231	7.01165e+02	2.23100e+03	0.0680189	700.0
2232	7.01161e+02	2.23200e+03	0.0679908	700.0
2233	7.01162e+02	2.23300e+03	0.0679742	700.0
2234	7.01164e+02	2.23400e+03	0.0679641	700.0
2235	7.01160e+02	2.23500e+03	0.0679572	700.0
2236	7.01158e+02	2.23600e+03	0.0679585	700.0
2237	7.01151e+02	2.23700e+03	0.0679554	700.0
2238	7.01163e+02	2.23800e+03	0.0679506	700.0
2239	7.01159e+02	2.23900e+03	0.0679448	700.0
2240	7.01155e+02	2.24000e+03	0.0679374	700.0
2241	7.01161e+02	2.24100e+03	0.0679268	700.0
2242	7.01143e+02	2.24200e+03	0.0679144	700.0
2243	7.01150e+02	2.24300e+03	0.0679009	700.0
2244	7.01149e+02	2.24400e+03	0.0678797	700.0
2245	7.01152e+02	2.24500e+03	0.0678646	700.0
2246	7.01150e+02	2.24600e+03	0.0678544	700.0
2247	7.01148e+02	2.24700e+03	0.0678471	700.0
2248	7.01143e+02	2.24800e+03	0.0678446	700.0
2249	7.01142e+02	2.24900e+03	0.06784	700.0
2250	7.01149e+02	2.25000e+03	0.0678352	700.0
2251	7.01141e+02	2.25100e+03	0.0678303	700.0
2252	7.01139e+02	2.25200e+03	0.0678282	700.0
2253	7.01144e+02	2.25300e+03	0.0678236	700.0
2254	7.01144e+02	2.25400e+03	0.0678175	700.0
2255	7.01140e+02	2.25500e+03	0.0678108	700.0
2256	7.01137e+02	2.25600e+03	0.0678001	700.0
2257	7.01132e+02	2.25700e+03	0.0677903	700.0
2258	7.01134e+02	2.25800e+03	0.0677805	700.0
2259	7.01131e+02	2.25900e+03	0.0677706	700.0
2260	7.01126e+02	2.26000e+03	0.0677609	700.0
2261	7.01126e+02	2.26100e+03	0.0677537	700.0
2262	7.01129e+02	2.26200e+03	0.0677484	700.0
2263	7.01131e+02	2.26300e+03	0.0677444	700.0
2264	7.01133e+02	2.26400e+03	0.0677482	700.0
2265	7.01131e+02	2.26500e+03	0.0677508	700.0
2266	7.01125e+02	2.26600e+03	0.0677543	700.0
2267	7.01121e+02	2.26700e+03	0.0677584	700.0
2268	7.01120e+02	2.26800e+03	0.0677657	700.0
2269	7.01125e+02	2.26900e+03	0.0677686	700.0
2270	7.01122e+02	2.27000e+03	0.0677694	700.0
2271	7.01123e+02	2.27100e+03	0.06777	700.0
2272	7.01129e+02	2.27200e+03	0.0677666	700.0
2273	7.01120e+02	2.27300e+03	0.0677636	700.0
2274	7.01111e+02	2.27400e+03	0.0677581	700.0
2275	7.01111e+02	2.27500e+03	0.0677504	700.0
2276	7.01111e+02	2.27600e+03	0.0677366	700.0
2277	7.01107e+02	2.27700e+03	0.0677222	700.0
2278	7.01106e+02	2.27800e+03	0.0677066	700.0
2279	7.01110e+02	2.27900e+03	0.0676902	700.0
2280	7.01109e+02	2.28000e+03	0.0676753	700.0
2281	7.01116e+02	2.28100e+03	0.0676696	700.0
2282	7.01108e+02	2.28200e+03	0.0676681	700.0
2283	7.01105e+02	2.28300e+03	0.0676686	700.0
2284	7.01099e+02	2.28400e+03	0.0676869	700.0
2285	7.01105e+02	2.28500e+03	0.0676979	700.0
2286	7.01102e+02	2.28600e+03	0.0677083	700.0
2287	7.01102e+02	2.28700e+03	0.0677191	700.0
2288	7.01103e+02	2.28800e+03	0.0677311	700.0
2289	7.01100e+02	2.28900e+03	0.0677401	700.0
2290	7.01097e+02	2.29000e+03	0.067747	700.0
2291	7.01095e+02	2.29100e+03	0.0677526	700.0
2292	7.01098e+02	2.29200e+03	0.0677495	700.0
2293	7.01086e+02	2.29300e+03	0.0677432	700.0
2294	7.01097e+02	2.29400e+03	0.0677316	700.0
2295	7.01094e+02	2.29500e+03	0.0677174	700.0
2296	7.01105e+02	2.29600e+03	0.0676924	700.0
2297	7.01101e+02	2.29700e+03	0.0676741	700.0
2298	7.01091e+02	2.29800e+03	0.0676584	700.0
2299	7.01090e+02	2.29900e+03	0.0676442	700.0
2300	7.01088e+02	2.30000e+03	0.0676356	700.0
2301	7.01099e+02	2.30100e+03	0.0676293	700.0
2302	7.01089e+02	2.30200e+03	0.067626	700.0
2303	7.01088e+02	2.30300e+03	0.0676246	700.0
2304	7.01088e+02	2.30400e+03	0.0676413	700.0
2305	7.01087e+02	2.30500e+03	0.0676594	700.0
2306	7.01089e+02	2.30600e+03	0.0676833	700.0
2307	7.01086e+02	2.30700e+03	0.0677104	700.0
2308	7.01080e+02	2.30800e+03	0.0677486	700.0
2309	7.01080e+02	2.30900e+03	0.0677751	700.0
2310	7.01075e+02	2.31000e+03	0.0677951	700.0
2311	7.01082e+02	2.31100e+03	0.0678113	700.0
2312	7.01080e+02	2.31200e+03	0.0678088	700.0
2313	7.01075e+02	2.31300e+03	0.0678072	700.0
2314	7.01070e+02	2.31400e+03	0.0678054	700.0
2315	7.01068e+02	2.31500e+03	0.0678034	700.0
2316	7.01070e+02	2.31600e+03	0.0677829	700.0
2317	7.01070e+02	2.31700e+03	0.0677672	700.0
2318	7.01068e+02	2.31800e+03	0.0677483	700.0
2319	7.01061e+02	2.31900e+03	0.0677271	700.0
2320	7.01069e+02	2.32000e+03	0.0677043	700.0
2321	7.01057e+02	2.32100e+03	0.0676839	700.0
2322	7.01065e+02	2.32200e+03	0.0676653	700.0
2323	7.01067e+02	2.32300e+03	0.0676478	700.0
2324	7.01062e+02	2.32400e+03	0.067635	700.0
2325	7.01062e+02	2.32500e+03	0.0676248	700.0
2326	7.01063e+02	2.32600e+03	0.0676178	700.0
2327	7.01057e+02	2.32700e+03	0.0676128	700.0
2328	7.01058e+02	2.32800e+03	0.0676198	700.0
2329	7.01050e+02	2.32900e+03	0.0676219	700.0
2330	7.01064e+02	2.33000e+03	0.067623	700.0
2331	7.01059e+02	2.33100e+03	0.0676244	700.0
2332	7.01050e+02	2.33200e+03	0.0676292	700.0
2333	7.01044e+02	2.33300e+03	0.0676307	700.0
2334	7.01039e+02	2.33400e+03	0.067629	700.0
2335	7.01050e+02	2.33500e+03	0.0676253	700.0
2336	7.01049e+02	2.33600e+03	0.0676143	700.0
2337	7.01050e+02	2.33700e+03	0.0676041	700.0
2338	7.01042e+02	2.33800e+03	0.0675961	700.0
2339	7.01043e+02	2.33900e+03	0.0675905	700.0
2340	7.01045e+02	2.34000e+03	0.0675841	700.0
2341	7.01039e+02	2.34100e+03	0.0675816	700.0
2342	7.01042e+02	2.34200e+03	0.0675805	700.0
2343	7.01038e+02	2.34300e+03	0.0675797	700.0
2344	7.01030e+02	2.34400e+03	0.0675864	700.0
2345	7.01034e+02	2.34500e+03	0.0675876	700.0
2346	7.01036e+02	2.34600e+03	0.0675901	700.0
2347	7.01037e+02	2.34700e+03	0.067595	700.0
2348	7.01037e+02	2.34800e+03	0.0675974	700.0
2349	7.01035e+02	2.34900e+03	0.067601	700.0
2350	7.01025e+02	2.35000e+03	0.0676026	700.0
2351	7.01030e+02	2.35100e+03	0.0676012	700.0
2352	7.01035e+02	2.35200e+03	0.0675971	700.0
2353	7.01037e+02	2.35300e+03	0.0675899	700.0
2354	7.01034e+02	2.35400e+03	0.0675805	700.0
2355	7.01032e+02	2.35500e+03	0.0675703	700.0
2356	7.01030e+02	2.35600e+03	0.0675573	700.0
2357	7.01039e+02	2.35700e+03	0.0675547	700.0
2358	7.01028e+02	2.35800e+03	0.0675573	700.0
2359	7.01026e+02	2.35900e+03	0.0675626	700.0
2360	7.01015e+02	2.36000e+03	0.0675887	700.0
2361	7.01022e+02	2.36100e+03	0.0676089	700.0
2362	7.01021e+02	2.36200e+03	0.0676286	700.0
2363	7.01019e+02	2.36300e+03	0.0676486	700.0
2364	7.01017e+02	2.36400e+03	0.0676714	700.0
2365	7.01013e+02	2.36500e+03	0.0676874	700.0
2366	7.01022e+02	2.36600e+03	0.0677005	700.0
2367	7.01021e+02	2.36700e+03	0.0677123	700.0
2368	7.01016e+02	2.36800e+03	0.0677132	700.0
2369	7.01015e+02	2.36900e+03	0.0677189	700.0
2370	7.01017e+02	2.37000e+03	0.0677241	700.0
2371	7.01022e+02	2.37100e+03	0.0677283	700.0
2372	7.01015e+02	2.37200e+03	0.0677279	700.0
2373	7.01011e+02	2.37300e+03	0.0677274	700.0
2374	7.01011e+02	2.37400e+03	0.0677282	700.0
2375	7.01015e+02	2.37500e+03	0.0677297	700.0
2376	7.01013e+02	2.37600e+03	0.0677223	700.0
2377	7.01013e+02	2.37700e+03	0.0677153	700.0
2378	7.01002e+02	2.37800e+03	0.0677063	700.0
2379	7.00997e+02	2.37900e+03	0.0676958	700.0
2380	7.01006e+02	2.38000e+03	0.0676797	700.0
2381	7.01005e+02	2.38100e+03	0.0676673	700.0
2382	7.01002e+02	2.38200e+03	0.0676547	700.0
2383	7.01008e+02	2.38300e+03	0.0676403	700.0
2384	7.01014e+02	2.38400e+03	0.0676217	700.0
2385	7.01001e+02	2.38500e+03	0.0676041	700.0
2386	7.01001e+02	2.38600e+03	0.067588	700.0
2387	7.00998e+02	2.38700e+03	0.0675731	700.0
2388	7.01006e+02	2.38800e+03	0.0675586	700.0
2389	7.01000e+02	2.38900e+03	0.0675445	700.0
2390	7.01004e+02	2.39000e+03	0.0675303	700.0
2391	7.01004e+02	2.39100e+03	0.0675165	700.0
2392	7.00991e+02	2.39200e+03	0.0675048	700.0
2393	7.00990e+02	2.39300e+03	0.0674892	700.0
2394	7.00998e+02	2.39400e+03	0.0674721	700.0
2395	7.00992e+02	2.39500e+03	0.0674543	700.0
2396	7.00986e+02	2.39600e+03	0.0674312	700.0
2397	7.00990e+02	2.39700e+03	0.0674148	700.0
2398	7.00999e+02	2.39800e+03	0.0674041	700.0
2399	7.00992e+02	2.39900e+03	0.0673963	700.0
2400	7.00991e+02	2.40000e+03	0.067401	700.0
2401	7.00989e+02	2.40100e+03	0.067407	700.0
2402	7.00995e+02	2.40200e+03	0.0674169	700.0
2403	7.00993e+02	2.40300e+03	0.0674296	700.0
2404	7.00988e+02	2.40400e+03	0.0674604	700.0
2405	7.00991e+02	2.40500e+03	0.0674825	700.0
2406	7.00991e+02	2.40600e+03	0.0675016	700.0
2407	7.00997e+02	2.40700e+03	0.0675191	700.0
2408	7.00994e+02	2.40800e+03	0.0675308	700.0
2409	7.00985e+02	2.40900e+03	0.0675399	700.0
2410	7.00991e+02	2.41000e+03	0.0675482	700.0
2411	7.00993e+02	2.41100e+03	0.0675563	700.0
2412	7.00990e+02	2.41200e+03	0.06756	700.0
2413	7.00983e+02	2.41300e+03	0.0675755	700.0
2414	7.00985e+02	2.41400e+03	0.0675986	700.0
2415	7.00979e+02	2.41500e+03	0.0676253	700.0
2416	7.00978e+02	2.41600e+03	0.0676636	700.0
2417	7.00987e+02	2.41700e+03	0.067687	700.0
2418	7.00982e+02	2.41800e+03	0.0676991	700.0
2419	7.00979e+02	2.41900e+03	0.0677032	700.0
2420	7.00978e+02	2.42000e+03	0.0676669	700.0
2421	7.00975e+02	2.42100e+03	0.0676238	700.0
2422	7.00980e+02	2.42200e+03	0.0675684	700.0
2423	7.00968e+02	2.42300e+03	0.0675048	700.0
2424	7.00968e+02	2.42400e+03	0.0673906	700.0
2425	7.00971e+02	2.42500e+03	0.0673071	700.0
2426	7.00979e+02	2.42600e+03	0.0672357	700.0
2427	7.00975e+02	2.42700e+03	0.0671707	700.0
2428	7.00970e+02	2.42800e+03	0.0671429	700.0
2429	7.00973e+02	2.42900e+03	0.0671248	700.0
2430	7.00964e+02	2.43000e+03	0.067121	700.0
2431	7.00963e+02	2.43100e+03	0.0671271	700.0
2432	7.00966e+02	2.43200e+03	0.0671956	700.0
2433	7.00960e+02	2.43300e+03	0.0672399	700.0
2434	7.00962e+02	2.43400e+03	0.0672828	700.0
2435	7.00959e+02	2.43500e+03	0.0673274	700.0
2436	7.00961e+02	2.43600e+03	0.0673797	700.0
2437	7.00956e+02	2.43700e+03	0.0674217	700.0
2438	7.00954e+02	2.43800e+03	0.0674579	700.0
2439	7.00960e+02	2.43900e+03	0.0674908	700.0
2440	7.00961e+02	2.44000e+03	0.0675037	700.0
2441	7.00955e+02	2.44100e+03	0.0675188	700.0
2442	7.00952e+02	2.44200e+03	0.0675307	700.0
2443	7.00955e+02	2.44300e+03	0.0675399	700.0
2444	7.00959e+02	2.44400e+03	0.0675359	700.0
2445	7.00955e+02	2.44500e+03	0.0675433	700.0
2446	7.00961e+02	2.44600e+03	0.0675566	700.0
2447	7.00949e+02	2.44700e+03	0.0675731	700.0
2448	7.00951e+02	2.44800e+03	0.0676007	700.0
2449	7.00949e+02	2.44900e+03	0.0676234	700.0
2450	7.00954e+02	2.45000e+03	0.0676431	700.0
2451	7.00960e+02	2.45100e+03	0.0676606	700.0
2452	7.00947e+02	2.45200e+03	0.0676746	700.0
2453	7.00949e+02	2.45300e+03	0.0676802	700.0
2454	7.00951e+02	2.45400e+03	0.0676799	700.0
2455	7.00952e+02	2.45500e+03	0.0676759	700.0
2456	7.00955e+02	2.45600e+03	0.0676491	700.0
2457	7.00943e+02	2.45700e+03	0.0676303	700.0
2458	7.00943e+02	2.45800e+03	0.0676078	700.0
2459	7.00944e+02	2.45900e+03	0.0675812	700.0
2460	7.00943e+02	2.46000e+03	0.0675467	700.0
2461	7.00944e+02	2.46100e+03	0.0675162	700.0
2462	7.00952e+02	2.46200e+03	0.067487	700.0
2463	7.00951e+02	2.46300e+03	0.0674584	700.0
2464	7.00949e+02	2.46400e+03	0.067435	700.0
2465	7.00956e+02	2.46500e+03	0.0674186	700.0
2466	7.00955e+02	2.46600e+03	0.0674067	700.0
2467	7.00948e+02	2.46700e+03	0.067397	700.0
2468	7.00942e+02	2.46800e+03	0.0674062	700.0
2469	7.00952e+02	2.46900e+03	0.0674095	700.0
2470	7.00948e+02	2.47000e+03	0.0674141	700.0
2471	7.00945e+02	2.47100e+03	0.0674205	700.0
2472	7.00942e+02	2.47200e+03	0.0674358	700.0
2473	7.00943e+02	2.47300e+03	0.0674458	700.0
2474	7.00948e+02	2.47400e+03	0.0674525	700.0
2475	7.00943e+02	2.47500e+03	0.0674583	700.0
2476	7.00938e+02	2.47600e+03	0.0674647	700.0
2477	7.00943e+02	2.47700e+03	0.0674724	700.0
2478	7.00937e+02	2.47800e+03	0.0674829	700.0
2479	7.00940e+02	2.47900e+03	0.0674947	700.0
2480	7.00943e+02	2.48000e+03	0.0675034	700.0
2481	7.00939e+02	2.48100e+03	0.0675103	700.0
2482	7.00932e+02	2.48200e+03	0.0675145	700.0
2483	7.00936e+02	2.48300e+03	0.0675167	700.0
2484	7.00943e+02	2.48400e+03	0.0675119	700.0
2485	7.00936e+02	2.48500e+03	0.0675105	700.0
2486	7.00933e+02	2.48600e+03	0.0675112	700.0
2487	7.00935e+02	2.48700e+03	0.067512	700.0
2488	7.00933e+02	2.48800e+03	0.0675089	700.0
2489	7.00938e+02	2.48900e+03	0.0675078	700.0
2490	7.00933e+02	2.49000e+03	0.0675067	700.0
2491	7.00935e+02	2.49100e+03	0.0675054	700.0
2492	7.00931e+02	2.49200e+03	0.0675055	700.0
2493	7.00933e+02	2.49300e+03	0.0675052	700.0
2494	7.00937e+02	2.49400e+03	0.0675077	700.0
2495	7.00921e+02	2.49500e+03	0.0675127	700.0
2496	7.00929e+02	2.49600e+03	0.0675176	700.0
2497	7.00928e+02	2.49700e+03	0.0675213	700.0
2498	7.00923e+02	2.49800e+03	0.067524	700.0
2499	7.00924e+02	2.49900e+03	0.0675254	700.0
2500	7.00927e+02	2.50000e+03	0.067523	700.0
2501	7.00923e+02	2.50100e+03	0.0675204	700.0
2502	7.00922e+02	2.50200e+03	0.0675189	700.0
2503	7.00932e+02	2.50300e+03	0.0675183	700.0
2504	7.00916e+02	2.50400e+03	0.0675165	700.0
2505	7.00917e+02	2.50500e+03	0.0675176	700.0
2506	7.00926e+02	2.50600e+03	0.0675162	700.0
2507	7.00936e+02	2.50700e+03	0.0675118	700.0
2508	7.00928e+02	2.50800e+03	0.0675062	700.0
2509	7.00919e+02	2.50900e+03	0.067497	700.0
2510	7.00922e+02	2.51000e+03	0.067489	700.0
2511	7.00926e+02	2.51100e+03	0.0674834	700.0
2512	7.00923e+02	2.51200e+03	0.0674736	700.0
2513	7.00922e+02	2.51300e+03	0.0674708	700.0
2514	7.00917e+02	2.51400e+03	0.0674703	700.0
2515	7.00917e+02	2.51500e+03	0.0674707	700.0
2516	7.00913e+02	2.51600e+03	0.0674831	700.0
2517	7.00918e+02	2.51700e+03	0.0674886	700.0
2518	7.00910e+02	2.51800e+03	0.0674947	700.0
2519	7.00918e+02	2.51900e+03	0.0675037	700.0
2520	7.00917e+02	2.52000e+03	0.0675155	700.0
2521	7.00913e+02	2.52100e+03	0.067526	700.0
2522	7.00914e+02	2.52200e+03	0.0675337	700.0
2523	7.00903e+02	2.52300e+03	0.0675395	700.0
2524	7.00911e+02	2.52400e+03	0.067545	700.0
2525	7.00914e+02	2.52500e+03	0.0675474	700.0
2526	7.00914e+02	2.52600e+03	0.0675499	700.0
2527	7.00903e+02	2.52700e+03	0.0675533	700.0
2528	7.00900e+02	2.52800e+03	0.067556	700.0
2529	7.00914e+02	2.52900e+03	0.0675657	700.0
2530	7.00912e+02	2.53000e+03	0.0675779	700.0
2531	7.00901e+02	2.53100e+03	0.0675909	700.0
2532	7.00910e+02	2.53200e+03	0.0676127	700.0
2533	7.00906e+02	2.53300e+03	0.067625	700.0
2534	7.00909e+02	2.53400e+03	0.0676334	700.0
2535	7.00902e+02	2.53500e+03	0.0676399	700.0
2536	7.00891e+02	2.53600e+03	0.0676338	700.0
2537	7.00890e+02	2.53700e+03	0.0676313	700.0
2538	7.00903e+02	2.53800e+03	0.0676278	700.0
2539	7.00896e+02	2.53900e+03	0.067623	700.0
2540	7.00895e+02	2.54000e+03	0.0676085	700.0
2541	7.00895e+02	2.54100e+03	0.067592	700.0
2542	7.00894e+02	2.54200e+03	0.0675722	700.0
2543	7.00898e+02	2.54300e+03	0.0675514	700.0
2544	7.00889e+02	2.54400e+03	0.0675221	700.0
2545	7.00890e+02	2.54500e+03	0.067498	700.0
2546	7.00888e+02	2.54600e+03	0.0674751	700.0
2547	7.00897e+02	2.54700e+03	0.0674523	700.0
2548	7.00890e+02	2.54800e+03	0.0674296	700.0
2549	7.00895e+02	2.54900e+03	0.0674063	700.0
2550	7.00893e+02	2.55000e+03	0.0673843	700.0
2551	7.00891e+02	2.55100e+03	0.0673637	700.0
2552	7.00896e+02	2.55200e+03	0.0673504	700.0
2553	7.00884e+02	2.55300e+03	0.0673448	700.0
2554	7.00879e+02	2.55400e+03	0.0673469	700.0
2555	7.00888e+02	2.55500e+03	0.0673523	700.0
2556	7.00887e+02	2.55600e+03	0.0673769	700.0
2557	7.00891e+02	2.55700e+03	0.0673917	700.0
2558	7.00875e+02	2.55800e+03	0.0674032	700.0
2559	7.00879e+02	2.55900e+03	0.0674132	700.0
2560	7.00873e+02	2.56000e+03	0.0674164	700.0
2561	7.00877e+02	2.56100e+03	0.0674154	700.0
2562	7.00881e+02	2.56200e+03	0.0674115	700.0
2563	7.00879e+02	2.56300e+03	0.0674059	700.0
2564	7.00874e+02	2.56400e+03	0.0673872	700.0
2565	7.00877e+02	2.56500e+03	0.067377	700.0
2566	7.00881e+02	2.56600e+03	0.0673685	700.0
2567	7.00876e+02	2.56700e+03	0.0673603	700.0
2568	7.00874e+02	2.56800e+03	0.0673555	700.0
2569	7.00870e+02	2.56900e+03	0.0673484	700.0
2570	7.00875e+02	2.57000e+03	0.0673411	700.0
2571	7.00878e+02	2.57100e+03	0.0673339	700.0
2572	7.00875e+02	2.57200e+03	0.0673266	700.0
2573	7.00876e+02	2.57300e+03	0.0673203	700.0
2574	7.00864e+02	2.57400e+03	0.0673148	700.0
2575	7.00872e+02	2.57500e+03	0.0673098	700.0
2576	7.00869e+02	2.57600e+03	0.067309	700.0
2577	7.00873e+02	2.57700e+03	0.0673087	700.0
2578	7.00869e+02	2.57800e+03	0.0673099	700.0
2579	7.00871e+02	2.57900e+03	0.0673122	700.0
2580	7.00862e+02	2.58000e+03	0.06732	700.0
2581	7.00863e+02	2.58100e+03	0.0673253	700.0
2582	7.00857e+02	2.58200e+03	0.0673299	700.0
2583	7.00866e+02	2.58300e+03	0.0673341	700.0
2584	7.00860e+02	2.58400e+03	0.0673365	700.0
2585	7.00862e+02	2.58500e+03	0.0673382	700.0
2586	7.00860e+02	2.58600e+03	0.067342	700.0
2587	7.00864e+02	2.58700e+03	0.0673487	700.0
2588	7.00871e+02	2.58800e+03	0.0673574	700.0
2589	7.00863e+02	2.58900e+03	0.0673642	700.0
2590	7.00865e+02	2.59000e+03	0.067366	700.0
2591	7.00859e+02	2.59100e+03	0.0673646	700.0
2592	7.00862e+02	2.59200e+03	0.067361	700.0
2593	7.00866e+02	2.59300e+03	0.067354	700.0
2594	7.00860e+02	2.59400e+03	0.0673485	700.0
2595	7.00855e+02	2.59500e+03	0.0673447	700.0
2596	7.00852e+02	2.59600e+03	0.0673307	700.0
2597	7.00857e+02	2.59700e+03	0.0673234	700.0
2598	7.00852e+02	2.59800e+03	0.0673176	700.0
2599	7.00856e+02	2.59900e+03	0.0673121	700.0
2600	7.00863e+02	2.60000e+03	0.0673133	700.0
2601	7.00862e+02	2.60100e+03	0.0673112	700.0
2602	7.00853e+02	2.60200e+03	0.0673085	700.0
2603	7.00850e+02	2.60300e+03	0.067306	700.0
2604	7.00855e+02	2.60400e+03	0.0673034	700.0
2605	7.00854e+02	2.60500e+03	0.0673013	700.0
2606	7.00850e+02	2.60600e+03	0.0672995	700.0
2607	7.00857e+02	2.60700e+03	0.0672979	700.0
2608	7.00862e+02	2.60800e+03	0.0672975	700.0
2609	7.00854e+02	2.60900e+03	0.0672968	700.0
2610	7.00855e+02	2.61000e+03	0.0672962	700.0
2611	7.00855e+02	2.61100e+03	0.0672956	700.0
2612	7.00843e+02	2.61200e+03	0.0672954	700.0
2613	7.00852e+02	2.61300e+03	0.0672944	700.0
2614	7.00845e+02	2.61400e+03	0.0672922	700.0
2615	7.00846e+02	2.61500e+03	0.067289	700.0
2616	7.00844e+02	2.61600e+03	0.067281	700.0
2617	7.00856e+02	2.61700e+03	0.0672716	700.0
2618	7.00848e+02	2.61800e+03	0.0672613	700.0
2619	7.00851e+02	2.61900e+03	0.0672513	700.0
2620	7.00845e+02	2.62000e+03	0.0672418	700.0
2621	7.00843e+02	2.62100e+03	0.067238	700.0
2622	7.00851e+02	2.62200e+03	0.0672362	700.0
2623	7.00841e+02	2.62300e+03	0.0672353	700.0
2624	7.00841e+02	2.62400e+03	0.067247	700.0
2625	7.00835e+02	2.62500e+03	0.0672535	700.0
2626	7.00844e+02	2.62600e+03	0.0672594	700.0
2627	7.00846e+02	2.62700e+03	0.0672655	700.0
2628	7.00839e+02	2.62800e+03	0.0672731	700.0
2629	7.00836e+02	2.62900e+03	0.0672804	700.0
2630	7.00839e+02	2.63000e+03	0.0672881	700.0
2631	7.00842e+02	2.63100e+03	0.0672963	700.0
2632	7.00835e+02	2.63200e+03	0.0673063	700.0
2633	7.00838e+02	2.63300e+03	0.0673166	700.0
2634	7.00834e+02	2.63400e+03	0.067327	700.0
2635	7.00831e+02	2.63500e+03	0.0673375	700.0
2636	7.00838e+02	2.63600e+03	0.0673503	700.0
2637	7.00843e+02	2.63700e+03	0.0673657	700.0
2638	7.00833e+02	2.63800e+03	0.0673839	700.0
2639	7.00827e+02	2.63900e+03	0.0674023	700.0
2640	7.00836e+02	2.64000e+03	0.0674214	700.0
2641	7.00828e+02	2.64100e+03	0.0674378	700.0
2642	7.00836e+02	2.64200e+03	0.0674522	700.0
2643	7.00829e+02	2.64300e+03	0.0674653	700.0
2644	7.00834e+02	2.64400e+03	0.0674739	700.0
2645	7.00838e+02	2.64500e+03	0.0674844	700.0
2646	7.00834e+02	2.64600e+03	0.0674975	700.0
2647	7.00843e+02	2.64700e+03	0.0675134	700.0
2648	7.00837e+02	2.64800e+03	0.0675315	700.0
2649	7.00832e+02	2.64900e+03	0.0675486	700.0
2650	7.00836e+02	2.65000e+03	0.0675635	700.0
2651	7.00839e+02	2.65100e+03	0.0675766	700.0
2652	7.00838e+02	2.65200e+03	0.067586	700.0
2653	7.00825e+02	2.65300e+03	0.0675894	700.0
2654	7.00824e+02	2.65400e+03	0.0675887	700.0
2655	7.00834e+02	2.65500e+03	0.0675856	700.0
2656	7.00839e+02	2.65600e+03	0.0675656	700.0
2657	7.00830e+02	2.65700e+03	0.0675526	700.0
2658	7.00829e+02	2.65800e+03	0.0675379	700.0
2659	7.00829e+02	2.65900e+03	0.0675196	700.0
2660	7.00831e+02	2.66000e+03	0.0674922	700.0
2661	7.00830e+02	2.66100e+03	0.0674664	700.0
2662	7.00820e+02	2.66200e+03	0.0674423	700.0
2663	7.00832e+02	2.66300e+03	0.0674206	700.0
2664	7.00830e+02	2.66400e+03	0.0674005	700.0
2665	7.00825e+02	2.66500e+03	0.0673867	700.0
2666	7.00826e+02	2.66600e+03	0.0673739	700.0
2667	7.00820e+02	2.66700e+03	0.0673592	700.0
2668	7.00830e+02	2.66800e+03	0.0673514	700.0
2669	7.00824e+02	2.66900e+03	0.0673348	700.0
2670	7.00823e+02	2.67000e+03	0.0673173	700.0
2671	7.00817e+02	2.67100e+03	0.0673019	700.0
2672	7.00822e+02	2.67200e+03	0.0672837	700.0
2673	7.00826e+02	2.67300e+03	0.0672745	700.0
2674	7.00820e+02	2.67400e+03	0.0672658	700.0
2675	7.00824e+02	2.67500e+03	0.0672559	700.0
2676	7.00828e+02	2.67600e+03	0.0672624	700.0
2677	7.00822e+02	2.67700e+03	0.0672623	700.0
2678	7.00819e+02	2.67800e+03	0.0672636	700.0
2679	7.00813e+02	2.67900e+03	0.0672672	700.0
2680	7.00817e+02	2.68000e+03	0.0672764	700.0
2681	7.00814e+02	2.68100e+03	0.0672895	700.0
2682	7.00814e+02	2.68200e+03	0.0673052	700.0
2683	7.00816e+02	2.68300e+03	0.0673222	700.0
2684	7.00816e+02	2.68400e+03	0.0673562	700.0
2685	7.00821e+02	2.68500e+03	0.0673855	700.0
2686	7.00814e+02	2.68600e+03	0.0674162	700.0
2687	7.00818e+02	2.68700e+03	0.0674488	700.0
2688	7.00811e+02	2.68800e+03	0.0674828	700.0
2689	7.00822e+02	2.68900e+03	0.0675105	700.0
2690	7.00814e+02	2.69000e+03	0.0675313	700.0
2691	7.00814e+02	2.69100e+03	0.0675466	700.0
2692	7.00816e+02	2.69200e+03	0.0675462	700.0
2693	7.00818e+02	2.69300e+03	0.0675469	700.0
2694	7.00817e+02	2.69400e+03	0.0675446	700.0
2695	7.00811e+02	2.69500e+03	0.0675398	700.0
2696	7.00806e+02	2.69600e+03	0.0675204	700.0
2697	7.00813e+02	2.69700e+03	0.0675114	700.0
2698	7.00829e+02	2.69800e+03	0.0675054	700.0
2699	7.00816e+02	2.69900e+03	0.0674993	700.0
2700	7.00807e+02	2.70000e+03	0.0674955	700.0
2701	7.00814e+02	2.70100e+03	0.06749	700.0
2702	7.00812e+02	2.70200e+03	0.0674848	700.0
2703	7.00815e+02	2.70300e+03	0.0674799	700.0
2704	7.00806e+02	2.70400e+03	0.0674715	700.0
2705	7.00815e+02	2.70500e+03	0.0674628	700.0
2706	7.00810e+02	2.70600e+03	0.0674529	700.0
2707	7.00815e+02	2.70700e+03	0.0674419	700.0
2708	7.00809e+02	2.70800e+03	0.0674253	700.0
2709	7.00817e+02	2.70900e+03	0.0674088	700.0
2710	7.00818e+02	2.71000e+03	0.0673909	700.0
2711	7.00819e+02	2.71100e+03	0.0673716	700.0
2712	7.00803e+02	2.71200e+03	0.0673506	700.0
2713	7.00804e+02	2.71300e+03	0.0673277	700.0
2714	7.00809e+02	2.71400e+03	0.0673043	700.0
2715	7.00809e+02	2.71500e+03	0.0672809	700.0
2716	7.00813e+02	2.71600e+03	0.0672587	700.0
2717	7.00812e+02	2.71700e+03	0.067239	700.0
2718	7.00806e+02	2.71800e+03	0.0672221	700.0
2719	7.00805e+02	2.71900e+03	0.0672079	700.0
2720	7.00805e+02	2.72000e+03	0.0671956	700.0
