Index	Ts	t	Weight	Tr
[#]	[°C]	[s]	[mg]	[°C]
681	1.30010e+02	6.81000e+02	3.02538	130.5
682	1.30511e+02	6.82000e+02	3.02534	131.0
683	1.31004e+02	6.83000e+02	3.0253	131.5
684	1.31504e+02	6.84000e+02	3.02525	132.0
685	1.32016e+02	6.85000e+02	3.02521	132.5
686	1.32532e+02	6.86000e+02	3.02516	133.0
687	1.33040e+02	6.87000e+02	3.0251	133.5
688	1.33548e+02	6.88000e+02	3.02505	134.0
689	1.34045e+02	6.89000e+02	3.025	134.5
690	1.34550e+02	6.90000e+02	3.02496	135.0
691	1.35059e+02	6.91000e+02	3.02492	135.5
692	1.35557e+02	6.92000e+02	3.02491	136.0
693	1.36048e+02	6.93000e+02	3.02489	136.5
694	1.36554e+02	6.94000e+02	3.02488	137.0
695	1.37054e+02	6.95000e+02	3.02487	137.5
696	1.37564e+02	6.96000e+02	3.02489	138.0
697	1.38062e+02	6.97000e+02	3.0249	138.5
698	1.38572e+02	6.98000e+02	3.0249	139.0
699	1.39055e+02	6.99000e+02	3.02491	139.5
700	1.39571e+02	7.00000e+02	3.02492	140.0
701	1.40078e+02	7.01000e+02	3.02492	140.5
702	1.40568e+02	7.02000e+02	3.02492	141.0
703	1.41082e+02	7.03000e+02	3.02491	141.5
704	1.41583e+02	7.04000e+02	3.0249	142.0
705	1.42076e+02	7.05000e+02	3.02489	142.5
706	1.42577e+02	7.06000e+02	3.02487	143.0
707	1.43099e+02	7.07000e+02	3.02486	143.5
708	1.43595e+02	7.08000e+02	3.02483	144.0
709	1.44096e+02	7.09000e+02	3.02481	144.5
710	1.44579e+02	7.10000e+02	3.02479	145.0
711	1.45083e+02	7.11000e+02	3.02477	145.5
712	1.45590e+02	7.12000e+02	3.02474	146.0
713	1.46089e+02	7.13000e+02	3.02471	146.5
714	1.46599e+02	7.14000e+02	3.02468	147.0
715	1.47088e+02	7.15000e+02	3.02464	147.5
716	1.47609e+02	7.16000e+02	3.0246	148.0
717	1.48103e+02	7.17000e+02	3.02457	148.5
718	1.48623e+02	7.18000e+02	3.02453	149.0
719	1.49115e+02	7.19000e+02	3.0245	149.5
720	1.49604e+02	7.20000e+02	3.02446	150.0
721	1.50119e+02	7.21000e+02	3.02443	150.5
722	1.50610e+02	7.22000e+02	3.0244	151.0
723	1.51126e+02	7.23000e+02	3.02436	151.5
724	1.51610e+02	7.24000e+02	3.02432	152.0
725	1.52113e+02	7.25000e+02	3.02428	152.5
726	1.52630e+02	7.26000e+02	3.02424	153.0
727	1.53127e+02	7.27000e+02	3.02419	153.5
728	1.53623e+02	7.28000e+02	3.02414	154.0
729	1.54130e+02	7.29000e+02	3.0241	154.5
730	1.54629e+02	7.30000e+02	3.02406	155.0
731	1.55117e+02	7.31000e+02	3.02403	155.5
732	1.55621e+02	7.32000e+02	3.02402	156.0
733	1.56144e+02	7.33000e+02	3.024	156.5
734	1.56651e+02	7.34000e+02	3.02398	157.0
735	1.57147e+02	7.35000e+02	3.02397	157.5
736	1.57654e+02	7.36000e+02	3.02397	158.0
737	1.58149e+02	7.37000e+02	3.02397	158.5
738	1.58668e+02	7.38000e+02	3.02396	159.0
739	1.59165e+02	7.39000e+02	3.02396	159.5
740	1.59667e+02	7.40000e+02	3.02395	160.0
741	1.60156e+02	7.41000e+02	3.02394	160.5
742	1.60669e+02	7.42000e+02	3.02392	161.0
743	1.61172e+02	7.43000e+02	3.02389	161.5
744	1.61662e+02	7.44000e+02	3.02384	162.0
745	1.62173e+02	7.45000e+02	3.02379	162.5
746	1.62680e+02	7.46000e+02	3.02374	163.0
747	1.63190e+02	7.47000e+02	3.02368	163.5
748	1.63677e+02	7.48000e+02	3.02361	164.0
749	1.64201e+02	7.49000e+02	3.02355	164.5
750	1.64698e+02	7.50000e+02	3.02349	165.0
751	1.65204e+02	7.51000e+02	3.02344	165.5
752	1.65707e+02	7.52000e+02	3.02341	166.0
753	1.66207e+02	7.53000e+02	3.02337	166.5
754	1.66716e+02	7.54000e+02	3.02334	167.0
755	1.67207e+02	7.55000e+02	3.02332	167.5
756	1.67718e+02	7.56000e+02	3.02331	168.0
757	1.68222e+02	7.57000e+02	3.02329	168.5
758	1.68732e+02	7.58000e+02	3.02326	169.0
759	1.69243e+02	7.59000e+02	3.02324	169.5
760	1.69752e+02	7.60000e+02	3.02321	170.0
761	1.70259e+02	7.61000e+02	3.02318	170.5
762	1.70745e+02	7.62000e+02	3.02314	171.0
763	1.71255e+02	7.63000e+02	3.0231	171.5
764	1.71757e+02	7.64000e+02	3.02304	172.0
765	1.72268e+02	7.65000e+02	3.02299	172.5
766	1.72761e+02	7.66000e+02	3.02293	173.0
767	1.73270e+02	7.67000e+02	3.02286	173.5
768	1.73774e+02	7.68000e+02	3.02279	174.0
769	1.74276e+02	7.69000e+02	3.02272	174.5
770	1.74784e+02	7.70000e+02	3.02266	175.0
771	1.75294e+02	7.71000e+02	3.0226	175.5
772	1.75799e+02	7.72000e+02	3.02254	176.0
773	1.76295e+02	7.73000e+02	3.02249	176.5
774	1.76800e+02	7.74000e+02	3.02243	177.0
775	1.77308e+02	7.75000e+02	3.02238	177.5
776	1.77818e+02	7.76000e+02	3.02234	178.0
777	1.78330e+02	7.77000e+02	3.0223	178.5
778	1.78827e+02	7.78000e+02	3.02225	179.0
779	1.79337e+02	7.79000e+02	3.02221	179.5
780	1.79832e+02	7.80000e+02	3.02217	180.0
781	1.80350e+02	7.81000e+02	3.02213	180.5
782	1.80835e+02	7.82000e+02	3.02208	181.0
783	1.81349e+02	7.83000e+02	3.02203	181.5
784	1.81852e+02	7.84000e+02	3.02198	182.0
785	1.82353e+02	7.85000e+02	3.02191	182.5
786	1.82850e+02	7.86000e+02	3.02185	183.0
787	1.83373e+02	7.87000e+02	3.02177	183.5
788	1.83879e+02	7.88000e+02	3.02168	184.0
789	1.84391e+02	7.89000e+02	3.02159	184.5
790	1.84890e+02	7.90000e+02	3.02149	185.0
791	1.85383e+02	7.91000e+02	3.02139	185.5
792	1.85883e+02	7.92000e+02	3.02127	186.0
793	1.86396e+02	7.93000e+02	3.02115	186.5
794	1.86899e+02	7.94000e+02	3.02102	187.0
795	1.87404e+02	7.95000e+02	3.0209	187.5
796	1.87908e+02	7.96000e+02	3.02075	188.0
797	1.88420e+02	7.97000e+02	3.0206	188.5
798	1.88920e+02	7.98000e+02	3.02045	189.0
799	1.89426e+02	7.99000e+02	3.0203	189.5
800	1.89930e+02	8.00000e+02	3.02012	190.0
801	1.90440e+02	8.01000e+02	3.01996	190.5
802	1.90940e+02	8.02000e+02	3.01979	191.0
803	1.91448e+02	8.03000e+02	3.01961	191.5
804	1.91950e+02	8.04000e+02	3.01944	192.0
805	1.92459e+02	8.05000e+02	3.01926	192.5
806	1.92955e+02	8.06000e+02	3.01907	193.0
807	1.93473e+02	8.07000e+02	3.01889	193.5
808	1.93987e+02	8.08000e+02	3.01869	194.0
809	1.94486e+02	8.09000e+02	3.0185	194.5
810	1.94996e+02	8.10000e+02	3.0183	195.0
811	1.95504e+02	8.11000e+02	3.01809	195.5
812	1.95996e+02	8.12000e+02	3.01787	196.0
813	1.96516e+02	8.13000e+02	3.01765	196.5
814	1.97014e+02	8.14000e+02	3.01742	197.0
815	1.97538e+02	8.15000e+02	3.01718	197.5
816	1.98051e+02	8.16000e+02	3.01691	198.0
817	1.98552e+02	8.17000e+02	3.01664	198.5
818	1.99067e+02	8.18000e+02	3.01637	199.0
819	1.99572e+02	8.19000e+02	3.01609	199.5
820	2.00084e+02	8.20000e+02	3.01578	200.0
821	2.00583e+02	8.21000e+02	3.01549	200.5
822	2.01098e+02	8.22000e+02	3.01519	201.0
823	2.01591e+02	8.23000e+02	3.01489	201.5
824	2.02102e+02	8.24000e+02	3.01458	202.0
825	2.02599e+02	8.25000e+02	3.01427	202.5
826	2.03107e+02	8.26000e+02	3.01395	203.0
827	2.03627e+02	8.27000e+02	3.01363	203.5
828	2.04137e+02	8.28000e+02	3.01328	204.0
829	2.04645e+02	8.29000e+02	3.01293	204.5
830	2.05157e+02	8.30000e+02	3.01259	205.0
831	2.05703e+02	8.31000e+02	3.01224	205.5
832	2.06227e+02	8.32000e+02	3.01188	206.0
833	2.06769e+02	8.33000e+02	3.01152	206.5
834	2.07271e+02	8.34000e+02	3.01117	207.0
835	2.07796e+02	8.35000e+02	3.01081	207.5
836	2.08367e+02	8.36000e+02	3.01045	208.0
837	2.08910e+02	8.37000e+02	3.01009	208.5
838	2.09479e+02	8.38000e+02	3.00972	209.0
839	2.10015e+02	8.39000e+02	3.00935	209.5
840	2.10513e+02	8.40000e+02	3.00896	210.0
841	2.11025e+02	8.41000e+02	3.00857	210.5
842	2.11542e+02	8.42000e+02	3.00818	211.0
843	2.12039e+02	8.43000e+02	3.00777	211.5
844	2.12551e+02	8.44000e+02	3.00734	212.0
845	2.13065e+02	8.45000e+02	3.0069	212.5
846	2.13580e+02	8.46000e+02	3.00647	213.0
847	2.14087e+02	8.47000e+02	3.00602	213.5
848	2.14588e+02	8.48000e+02	3.00556	214.0
849	2.15107e+02	8.49000e+02	3.00511	214.5
850	2.15618e+02	8.50000e+02	3.00466	215.0
851	2.16131e+02	8.51000e+02	3.00422	215.5
852	2.16634e+02	8.52000e+02	3.00378	216.0
853	2.17147e+02	8.53000e+02	3.00335	216.5
854	2.17677e+02	8.54000e+02	3.00292	217.0
855	2.18184e+02	8.55000e+02	3.0025	217.5
856	2.18709e+02	8.56000e+02	3.00209	218.0
857	2.19217e+02	8.57000e+02	3.00168	218.5
858	2.19722e+02	8.58000e+02	3.00127	219.0
859	2.20248e+02	8.59000e+02	3.00085	219.5
860	2.20762e+02	8.60000e+02	3.00044	220.0
861	2.21288e+02	8.61000e+02	3.00002	220.5
862	2.21803e+02	8.62000e+02	2.99961	221.0
863	2.22339e+02	8.63000e+02	2.99919	221.5
864	2.22893e+02	8.64000e+02	2.99876	222.0
865	2.23434e+02	8.65000e+02	2.99835	222.5
866	2.23975e+02	8.66000e+02	2.99793	223.0
867	2.24498e+02	8.67000e+02	2.99751	223.5
868	2.25027e+02	8.68000e+02	2.9971	224.0
869	2.25552e+02	8.69000e+02	2.99669	224.5
870	2.26071e+02	8.70000e+02	2.99628	225.0
871	2.26582e+02	8.71000e+02	2.99587	225.5
872	2.27114e+02	8.72000e+02	2.99546	226.0
873	2.27622e+02	8.73000e+02	2.99505	226.5
874	2.28134e+02	8.74000e+02	2.99463	227.0
875	2.28662e+02	8.75000e+02	2.99421	227.5
876	2.29166e+02	8.76000e+02	2.99377	228.0
877	2.29669e+02	8.77000e+02	2.99334	228.5
878	2.30185e+02	8.78000e+02	2.9929	229.0
879	2.30744e+02	8.79000e+02	2.99246	229.5
880	2.31266e+02	8.80000e+02	2.99201	230.0
881	2.31800e+02	8.81000e+02	2.99156	230.5
882	2.32305e+02	8.82000e+02	2.99111	231.0
883	2.32807e+02	8.83000e+02	2.99066	231.5
884	2.33298e+02	8.84000e+02	2.99021	232.0
885	2.33804e+02	8.85000e+02	2.98975	232.5
886	2.34301e+02	8.86000e+02	2.9893	233.0
887	2.34812e+02	8.87000e+02	2.98884	233.5
888	2.35346e+02	8.88000e+02	2.98838	234.0
889	2.35834e+02	8.89000e+02	2.98792	234.5
890	2.36316e+02	8.90000e+02	2.98746	235.0
891	2.36836e+02	8.91000e+02	2.98699	235.5
892	2.37322e+02	8.92000e+02	2.98652	236.0
893	2.37828e+02	8.93000e+02	2.98604	236.5
894	2.38343e+02	8.94000e+02	2.98557	237.0
895	2.38850e+02	8.95000e+02	2.98509	237.5
896	2.39395e+02	8.96000e+02	2.98461	238.0
897	2.39889e+02	8.97000e+02	2.98412	238.5
898	2.40419e+02	8.98000e+02	2.98364	239.0
899	2.40929e+02	8.99000e+02	2.98315	239.5
900	2.41415e+02	9.00000e+02	2.98265	240.0
901	2.41938e+02	9.01000e+02	2.98215	240.5
902	2.42452e+02	9.02000e+02	2.98165	241.0
903	2.42957e+02	9.03000e+02	2.98114	241.5
904	2.43442e+02	9.04000e+02	2.98063	242.0
905	2.43943e+02	9.05000e+02	2.98012	242.5
906	2.44465e+02	9.06000e+02	2.97962	243.0
907	2.44969e+02	9.07000e+02	2.97911	243.5
908	2.45424e+02	9.08000e+02	2.97861	244.0
909	2.45909e+02	9.09000e+02	2.9781	244.5
910	2.46431e+02	9.10000e+02	2.97759	245.0
911	2.46948e+02	9.11000e+02	2.97708	245.5
912	2.47442e+02	9.12000e+02	2.97656	246.0
913	2.47938e+02	9.13000e+02	2.97604	246.5
914	2.48428e+02	9.14000e+02	2.97552	247.0
915	2.48927e+02	9.15000e+02	2.97499	247.5
916	2.49425e+02	9.16000e+02	2.97447	248.0
917	2.49920e+02	9.17000e+02	2.97395	248.5
918	2.50426e+02	9.18000e+02	2.97344	249.0
919	2.50931e+02	9.19000e+02	2.97292	249.5
920	2.51415e+02	9.20000e+02	2.97242	250.0
921	2.51904e+02	9.21000e+02	2.97192	250.5
922	2.52400e+02	9.22000e+02	2.97141	251.0
923	2.52903e+02	9.23000e+02	2.97091	251.5
924	2.53410e+02	9.24000e+02	2.9704	252.0
925	2.53902e+02	9.25000e+02	2.9699	252.5
926	2.54403e+02	9.26000e+02	2.96939	253.0
927	2.54917e+02	9.27000e+02	2.96889	253.5
928	2.55441e+02	9.28000e+02	2.96838	254.0
929	2.55933e+02	9.29000e+02	2.96787	254.5
930	2.56431e+02	9.30000e+02	2.96737	255.0
931	2.56924e+02	9.31000e+02	2.96686	255.5
932	2.57440e+02	9.32000e+02	2.96634	256.0
933	2.57939e+02	9.33000e+02	2.96583	256.5
934	2.58445e+02	9.34000e+02	2.96531	257.0
935	2.58954e+02	9.35000e+02	2.96479	257.5
936	2.59466e+02	9.36000e+02	2.96425	258.0
937	2.60004e+02	9.37000e+02	2.96371	258.5
938	2.60519e+02	9.38000e+02	2.96317	259.0
939	2.61054e+02	9.39000e+02	2.96263	259.5
940	2.61559e+02	9.40000e+02	2.96206	260.0
941	2.62071e+02	9.41000e+02	2.96151	260.5
942	2.62582e+02	9.42000e+02	2.96095	261.0
943	2.63069e+02	9.43000e+02	2.96039	261.5
944	2.63582e+02	9.44000e+02	2.95984	262.0
945	2.64091e+02	9.45000e+02	2.95928	262.5
946	2.64599e+02	9.46000e+02	2.95873	263.0
947	2.65128e+02	9.47000e+02	2.95818	263.5
948	2.65634e+02	9.48000e+02	2.95763	264.0
949	2.66169e+02	9.49000e+02	2.95708	264.5
950	2.66677e+02	9.50000e+02	2.95653	265.0
951	2.67193e+02	9.51000e+02	2.95598	265.5
952	2.67711e+02	9.52000e+02	2.95542	266.0
953	2.68206e+02	9.53000e+02	2.95486	266.5
954	2.68730e+02	9.54000e+02	2.9543	267.0
955	2.69250e+02	9.55000e+02	2.95374	267.5
956	2.69768e+02	9.56000e+02	2.95318	268.0
957	2.70260e+02	9.57000e+02	2.95262	268.5
958	2.70783e+02	9.58000e+02	2.95206	269.0
959	2.71312e+02	9.59000e+02	2.9515	269.5
960	2.71863e+02	9.60000e+02	2.95095	270.0
961	2.72418e+02	9.61000e+02	2.9504	270.5
962	2.72919e+02	9.62000e+02	2.94985	271.0
963	2.73428e+02	9.63000e+02	2.9493	271.5
964	2.73967e+02	9.64000e+02	2.94875	272.0
965	2.74457e+02	9.65000e+02	2.94819	272.5
966	2.74968e+02	9.66000e+02	2.94763	273.0
967	2.75481e+02	9.67000e+02	2.94706	273.5
968	2.76017e+02	9.68000e+02	2.94647	274.0
969	2.76534e+02	9.69000e+02	2.94589	274.5
970	2.77051e+02	9.70000e+02	2.9453	275.0
971	2.77559e+02	9.71000e+02	2.9447	275.5
972	2.78062e+02	9.72000e+02	2.9441	276.0
973	2.78582e+02	9.73000e+02	2.9435	276.5
974	2.79081e+02	9.74000e+02	2.9429	277.0
975	2.79628e+02	9.75000e+02	2.94231	277.5
976	2.80124e+02	9.76000e+02	2.94173	278.0
977	2.80622e+02	9.77000e+02	2.94114	278.5
978	2.81141e+02	9.78000e+02	2.94055	279.0
979	2.81668e+02	9.79000e+02	2.93996	279.5
980	2.82180e+02	9.80000e+02	2.93937	280.0
981	2.82720e+02	9.81000e+02	2.93878	280.5
982	2.83246e+02	9.82000e+02	2.93818	281.0
983	2.83790e+02	9.83000e+02	2.93757	281.5
984	2.84303e+02	9.84000e+02	2.93695	282.0
985	2.84817e+02	9.85000e+02	2.93634	282.5
986	2.85328e+02	9.86000e+02	2.93572	283.0
987	2.85835e+02	9.87000e+02	2.9351	283.5
988	2.86343e+02	9.88000e+02	2.93446	284.0
989	2.86849e+02	9.89000e+02	2.93382	284.5
990	2.87354e+02	9.90000e+02	2.93318	285.0
991	2.87885e+02	9.91000e+02	2.93253	285.5
992	2.88405e+02	9.92000e+02	2.93185	286.0
993	2.89051e+02	9.93000e+02	2.93117	286.5
994	2.89556e+02	9.94000e+02	2.93049	287.0
995	2.90064e+02	9.95000e+02	2.9298	287.5
996	2.90565e+02	9.96000e+02	2.92908	288.0
997	2.91052e+02	9.97000e+02	2.92835	288.5
998	2.91560e+02	9.98000e+02	2.92763	289.0
999	2.92073e+02	9.99000e+02	2.92689	289.5
1000	2.92624e+02	1.00000e+03	2.92612	290.0
1001	2.93149e+02	1.00100e+03	2.92535	290.5
1002	2.93675e+02	1.00200e+03	2.92458	291.0
1003	2.94272e+02	1.00300e+03	2.92379	291.5
1004	2.94762e+02	1.00400e+03	2.92298	292.0
1005	2.95269e+02	1.00500e+03	2.92216	292.5
1006	2.95769e+02	1.00600e+03	2.92135	293.0
1007	2.96278e+02	1.00700e+03	2.92054	293.5
1008	2.96819e+02	1.00800e+03	2.91971	294.0
1009	2.97333e+02	1.00900e+03	2.91889	294.5
1010	2.97864e+02	1.01000e+03	2.91807	295.0
1011	2.98356e+02	1.01100e+03	2.91725	295.5
1012	2.98887e+02	1.01200e+03	2.91643	296.0
1013	2.99431e+02	1.01300e+03	2.9156	296.5
1014	2.99895e+02	1.01400e+03	2.91475	297.0
1015	3.00395e+02	1.01500e+03	2.91389	297.5
1016	3.00880e+02	1.01600e+03	2.91297	298.0
1017	3.01328e+02	1.01700e+03	2.91205	298.5
1018	3.01854e+02	1.01800e+03	2.91111	299.0
1019	3.02305e+02	1.01900e+03	2.91015	299.5
1020	3.02751e+02	1.02000e+03	2.9091	300.0
1021	3.03216e+02	1.02100e+03	2.90807	300.5
1022	3.03682e+02	1.02200e+03	2.90703	301.0
1023	3.04148e+02	1.02300e+03	2.90598	301.5
1024	3.04633e+02	1.02400e+03	2.90487	302.0
1025	3.05109e+02	1.02500e+03	2.90377	302.5
1026	3.05586e+02	1.02600e+03	2.90266	303.0
1027	3.06081e+02	1.02700e+03	2.90155	303.5
1028	3.06593e+02	1.02800e+03	2.90039	304.0
1029	3.07091e+02	1.02900e+03	2.89922	304.5
1030	3.07599e+02	1.03000e+03	2.89803	305.0
1031	3.08105e+02	1.03100e+03	2.89683	305.5
1032	3.08602e+02	1.03200e+03	2.89556	306.0
1033	3.09098e+02	1.03300e+03	2.8943	306.5
1034	3.09607e+02	1.03400e+03	2.89303	307.0
1035	3.10065e+02	1.03500e+03	2.89174	307.5
1036	3.10535e+02	1.03600e+03	2.8904	308.0
1037	3.11030e+02	1.03700e+03	2.88907	308.5
1038	3.11538e+02	1.03800e+03	2.88773	309.0
1039	3.12043e+02	1.03900e+03	2.88638	309.5
1040	3.12537e+02	1.04000e+03	2.88498	310.0
1041	3.13038e+02	1.04100e+03	2.88359	310.5
1042	3.13541e+02	1.04200e+03	2.88219	311.0
1043	3.14065e+02	1.04300e+03	2.88077	311.5
1044	3.14589e+02	1.04400e+03	2.8793	312.0
1045	3.15080e+02	1.04500e+03	2.87783	312.5
1046	3.15585e+02	1.04600e+03	2.87635	313.0
1047	3.16072e+02	1.04700e+03	2.87486	313.5
1048	3.16571e+02	1.04800e+03	2.87331	314.0
1049	3.17059e+02	1.04900e+03	2.87178	314.5
1050	3.17564e+02	1.05000e+03	2.87023	315.0
1051	3.18059e+02	1.05100e+03	2.86868	315.5
1052	3.18552e+02	1.05200e+03	2.86709	316.0
1053	3.19037e+02	1.05300e+03	2.86551	316.5
1054	3.19524e+02	1.05400e+03	2.86393	317.0
1055	3.20035e+02	1.05500e+03	2.86234	317.5
1056	3.20539e+02	1.05600e+03	2.86072	318.0
1057	3.21034e+02	1.05700e+03	2.85911	318.5
1058	3.21530e+02	1.05800e+03	2.85749	319.0
1059	3.22051e+02	1.05900e+03	2.85587	319.5
1060	3.22537e+02	1.06000e+03	2.85423	320.0
1061	3.23037e+02	1.06100e+03	2.85258	320.5
1062	3.23536e+02	1.06200e+03	2.85093	321.0
1063	3.24067e+02	1.06300e+03	2.84928	321.5
1064	3.24593e+02	1.06400e+03	2.8476	322.0
1065	3.25116e+02	1.06500e+03	2.84594	322.5
1066	3.25619e+02	1.06600e+03	2.84428	323.0
1067	3.26126e+02	1.06700e+03	2.84261	323.5
1068	3.26629e+02	1.06800e+03	2.84093	324.0
1069	3.27131e+02	1.06900e+03	2.83923	324.5
1070	3.27632e+02	1.07000e+03	2.83752	325.0
1071	3.28136e+02	1.07100e+03	2.8358	325.5
1072	3.28636e+02	1.07200e+03	2.83403	326.0
1073	3.29139e+02	1.07300e+03	2.83227	326.5
1074	3.29685e+02	1.07400e+03	2.8305	327.0
1075	3.30198e+02	1.07500e+03	2.82873	327.5
1076	3.30704e+02	1.07600e+03	2.8269	328.0
1077	3.31198e+02	1.07700e+03	2.82508	328.5
1078	3.31697e+02	1.07800e+03	2.82323	329.0
1079	3.32216e+02	1.07900e+03	2.82137	329.5
1080	3.32723e+02	1.08000e+03	2.81944	330.0
1081	3.33239e+02	1.08100e+03	2.81751	330.5
1082	3.33756e+02	1.08200e+03	2.81554	331.0
1083	3.34263e+02	1.08300e+03	2.81356	331.5
1084	3.34779e+02	1.08400e+03	2.81145	332.0
1085	3.35279e+02	1.08500e+03	2.80935	332.5
1086	3.35763e+02	1.08600e+03	2.8072	333.0
1087	3.36313e+02	1.08700e+03	2.80503	333.5
1088	3.36855e+02	1.08800e+03	2.80269	334.0
1089	3.37413e+02	1.08900e+03	2.80037	334.5
1090	3.37926e+02	1.09000e+03	2.79802	335.0
1091	3.38422e+02	1.09100e+03	2.79563	335.5
1092	3.38938e+02	1.09200e+03	2.79309	336.0
1093	3.39461e+02	1.09300e+03	2.79058	336.5
1094	3.39966e+02	1.09400e+03	2.78805	337.0
1095	3.40472e+02	1.09500e+03	2.78549	337.5
1096	3.41010e+02	1.09600e+03	2.7828	338.0
1097	3.41546e+02	1.09700e+03	2.78011	338.5
1098	3.42082e+02	1.09800e+03	2.77736	339.0
1099	3.42594e+02	1.09900e+03	2.77458	339.5
1100	3.43106e+02	1.10000e+03	2.77158	340.0
1101	3.43582e+02	1.10100e+03	2.76857	340.5
1102	3.44073e+02	1.10200e+03	2.7655	341.0
1103	3.44585e+02	1.10300e+03	2.76236	341.5
1104	3.45097e+02	1.10400e+03	2.7589	342.0
1105	3.45596e+02	1.10500e+03	2.75546	342.5
1106	3.46116e+02	1.10600e+03	2.75193	343.0
1107	3.46630e+02	1.10700e+03	2.74833	343.5
1108	3.47144e+02	1.10800e+03	2.74434	344.0
1109	3.47695e+02	1.10900e+03	2.74041	344.5
1110	3.48262e+02	1.11000e+03	2.73639	345.0
1111	3.48800e+02	1.11100e+03	2.73229	345.5
1112	3.49319e+02	1.11200e+03	2.72779	346.0
1113	3.49831e+02	1.11300e+03	2.72332	346.5
1114	3.50312e+02	1.11400e+03	2.71874	347.0
1115	3.50830e+02	1.11500e+03	2.71408	347.5
1116	3.51333e+02	1.11600e+03	2.70894	348.0
1117	3.51836e+02	1.11700e+03	2.70384	348.5
1118	3.52331e+02	1.11800e+03	2.69863	349.0
1119	3.52821e+02	1.11900e+03	2.69331	349.5
1120	3.53333e+02	1.12000e+03	2.68742	350.0
1121	3.53846e+02	1.12100e+03	2.68158	350.5
1122	3.54313e+02	1.12200e+03	2.67558	351.0
1123	3.54817e+02	1.12300e+03	2.66945	351.5
1124	3.55299e+02	1.12400e+03	2.66266	352.0
1125	3.55846e+02	1.12500e+03	2.65593	352.5
1126	3.56375e+02	1.12600e+03	2.64904	353.0
1127	3.56888e+02	1.12700e+03	2.64199	353.5
1128	3.57409e+02	1.12800e+03	2.63415	354.0
1129	3.57908e+02	1.12900e+03	2.62635	354.5
1130	3.58384e+02	1.13000e+03	2.61831	355.0
1131	3.58864e+02	1.13100e+03	2.61006	355.5
1132	3.59366e+02	1.13200e+03	2.60078	356.0
1133	3.59944e+02	1.13300e+03	2.59159	356.5
1134	3.60496e+02	1.13400e+03	2.58215	357.0
1135	3.61031e+02	1.13500e+03	2.57249	357.5
1136	3.61520e+02	1.13600e+03	2.56168	358.0
1137	3.62028e+02	1.13700e+03	2.55104	358.5
1138	3.62471e+02	1.13800e+03	2.54016	359.0
1139	3.62964e+02	1.13900e+03	2.52907	359.5
1140	3.63448e+02	1.14000e+03	2.51689	360.0
1141	3.63928e+02	1.14100e+03	2.50487	360.5
1142	3.64405e+02	1.14200e+03	2.49264	361.0
1143	3.64882e+02	1.14300e+03	2.48022	361.5
1144	3.65379e+02	1.14400e+03	2.46677	362.0
1145	3.65852e+02	1.14500e+03	2.45345	362.5
1146	3.66339e+02	1.14600e+03	2.4399	363.0
1147	3.66833e+02	1.14700e+03	2.42612	363.5
1148	3.67322e+02	1.14800e+03	2.41124	364.0
1149	3.67803e+02	1.14900e+03	2.39642	364.5
1150	3.68301e+02	1.15000e+03	2.38131	365.0
1151	3.68777e+02	1.15100e+03	2.36594	365.5
1152	3.69244e+02	1.15200e+03	2.34926	366.0
1153	3.69750e+02	1.15300e+03	2.33277	366.5
1154	3.70266e+02	1.15400e+03	2.31603	367.0
1155	3.70817e+02	1.15500e+03	2.29905	367.5
1156	3.71369e+02	1.15600e+03	2.28081	368.0
1157	3.71856e+02	1.15700e+03	2.26275	368.5
1158	3.72338e+02	1.15800e+03	2.24442	369.0
1159	3.72819e+02	1.15900e+03	2.22583	369.5
1160	3.73301e+02	1.16000e+03	2.20599	370.0
1161	3.73815e+02	1.16100e+03	2.18627	370.5
1162	3.74305e+02	1.16200e+03	2.16626	371.0
1163	3.74858e+02	1.16300e+03	2.146	371.5
1164	3.75443e+02	1.16400e+03	2.12442	372.0
1165	3.75935e+02	1.16500e+03	2.10306	372.5
1166	3.76425e+02	1.16600e+03	2.08146	373.0
1167	3.76898e+02	1.16700e+03	2.05965	373.5
1168	3.77380e+02	1.16800e+03	2.03672	374.0
1169	3.77888e+02	1.16900e+03	2.014	374.5
1170	3.78402e+02	1.17000e+03	1.99111	375.0
1171	3.78904e+02	1.17100e+03	1.96804	375.5
1172	3.79361e+02	1.17200e+03	1.94406	376.0
1173	3.79812e+02	1.17300e+03	1.92023	376.5
1174	3.80331e+02	1.17400e+03	1.89622	377.0
1175	3.80807e+02	1.17500e+03	1.87204	377.5
1176	3.81286e+02	1.17600e+03	1.84704	378.0
1177	3.81763e+02	1.17700e+03	1.82218	378.5
1178	3.82237e+02	1.17800e+03	1.7972	379.0
1179	3.82739e+02	1.17900e+03	1.7721	379.5
1180	3.83247e+02	1.18000e+03	1.74633	380.0
1181	3.83737e+02	1.18100e+03	1.72075	380.5
1182	3.84195e+02	1.18200e+03	1.6951	381.0
1183	3.84743e+02	1.18300e+03	1.66938	381.5
1184	3.85249e+02	1.18400e+03	1.64329	382.0
1185	3.85703e+02	1.18500e+03	1.61731	382.5
1186	3.86226e+02	1.18600e+03	1.59131	383.0
1187	3.86641e+02	1.18700e+03	1.56529	383.5
1188	3.87094e+02	1.18800e+03	1.53911	384.0
1189	3.87612e+02	1.18900e+03	1.51299	384.5
1190	3.88136e+02	1.19000e+03	1.48688	385.0
1191	3.88621e+02	1.19100e+03	1.46076	385.5
1192	3.89094e+02	1.19200e+03	1.43459	386.0
1193	3.89604e+02	1.19300e+03	1.4084	386.5
1194	3.90139e+02	1.19400e+03	1.38221	387.0
1195	3.90649e+02	1.19500e+03	1.35602	387.5
1196	3.91206e+02	1.19600e+03	1.32979	388.0
1197	3.91703e+02	1.19700e+03	1.30362	388.5
1198	3.92174e+02	1.19800e+03	1.27747	389.0
1199	3.92641e+02	1.19900e+03	1.25134	389.5
1200	3.93155e+02	1.20000e+03	1.22527	390.0
1201	3.93652e+02	1.20100e+03	1.19916	390.5
1202	3.94144e+02	1.20200e+03	1.17306	391.0
1203	3.94640e+02	1.20300e+03	1.14696	391.5
1204	3.95146e+02	1.20400e+03	1.12089	392.0
1205	3.95659e+02	1.20500e+03	1.09483	392.5
1206	3.96155e+02	1.20600e+03	1.0688	393.0
1207	3.96639e+02	1.20700e+03	1.04279	393.5
1208	3.97158e+02	1.20800e+03	1.01683	394.0
1209	3.97647e+02	1.20900e+03	0.990809	394.5
1210	3.98148e+02	1.21000e+03	0.964728	395.0
1211	3.98640e+02	1.21100e+03	0.938605	395.5
1212	3.99138e+02	1.21200e+03	0.912348	396.0
1213	3.99639e+02	1.21300e+03	0.886068	396.5
1214	4.00137e+02	1.21400e+03	0.859755	397.0
1215	4.00651e+02	1.21500e+03	0.833432	397.5
1216	4.01161e+02	1.21600e+03	0.806988	398.0
1217	4.01662e+02	1.21700e+03	0.780712	398.5
1218	4.02159e+02	1.21800e+03	0.75456	399.0
1219	4.02650e+02	1.21900e+03	0.728502	399.5
1220	4.03161e+02	1.22000e+03	0.702898	400.0
1221	4.03694e+02	1.22100e+03	0.677397	400.5
1222	4.04205e+02	1.22200e+03	0.652156	401.0
1223	4.04710e+02	1.22300e+03	0.62712	401.5
1224	4.05217e+02	1.22400e+03	0.603137	402.0
1225	4.05732e+02	1.22500e+03	0.579156	402.5
1226	4.06250e+02	1.22600e+03	0.555526	403.0
1227	4.06839e+02	1.22700e+03	0.532194	403.5
1228	4.07369e+02	1.22800e+03	0.5104	404.0
1229	4.07892e+02	1.22900e+03	0.488502	404.5
1230	4.08405e+02	1.23000e+03	0.467025	405.0
1231	4.08910e+02	1.23100e+03	0.44592	405.5
1232	4.09404e+02	1.23200e+03	0.426695	406.0
1233	4.09911e+02	1.23300e+03	0.407289	406.5
1234	4.10461e+02	1.23400e+03	0.388331	407.0
1235	4.10985e+02	1.23500e+03	0.369771	407.5
1236	4.11496e+02	1.23600e+03	0.353269	408.0
1237	4.11999e+02	1.23700e+03	0.336491	408.5
1238	4.12532e+02	1.23800e+03	0.320138	409.0
1239	4.13053e+02	1.23900e+03	0.304175	409.5
1240	4.13567e+02	1.24000e+03	0.290225	410.0
1241	4.14057e+02	1.24100e+03	0.27597	410.5
1242	4.14572e+02	1.24200e+03	0.262098	411.0
1243	4.15078e+02	1.24300e+03	0.248586	411.5
1244	4.15594e+02	1.24400e+03	0.23692	412.0
1245	4.16100e+02	1.24500e+03	0.224946	412.5
1246	4.16632e+02	1.24600e+03	0.213307	413.0
1247	4.17154e+02	1.24700e+03	0.201986	413.5
1248	4.17663e+02	1.24800e+03	0.192303	414.0
1249	4.18181e+02	1.24900e+03	0.182358	414.5
1250	4.18693e+02	1.25000e+03	0.172712	415.0
1251	4.19211e+02	1.25100e+03	0.16335	415.5
1252	4.19702e+02	1.25200e+03	0.155445	416.0
1253	4.20214e+02	1.25300e+03	0.147289	416.5
1254	4.20710e+02	1.25400e+03	0.139387	417.0
1255	4.21176e+02	1.25500e+03	0.131733	417.5
1256	4.21678e+02	1.25600e+03	0.125343	418.0
1257	4.22230e+02	1.25700e+03	0.118743	418.5
1258	4.22777e+02	1.25800e+03	0.112367	419.0
1259	4.23296e+02	1.25900e+03	0.106203	419.5
1260	4.23796e+02	1.26000e+03	0.101139	420.0
1261	4.24318e+02	1.26100e+03	0.0958775	420.5
1262	4.24843e+02	1.26200e+03	0.0907968	421.0
1263	4.25590e+02	1.26300e+03	0.0858931	421.5
1264	4.26323e+02	1.26400e+03	0.0819039	422.0
1265	4.26737e+02	1.26500e+03	0.077748	422.5
1266	4.27183e+02	1.26600e+03	0.0737409	423.0
1267	4.27665e+02	1.26700e+03	0.0698801	423.5
1268	4.28125e+02	1.26800e+03	0.0667649	424.0
1269	4.28626e+02	1.26900e+03	0.0635094	424.5
1270	4.29106e+02	1.27000e+03	0.0603696	425.0
1271	4.29610e+02	1.27100e+03	0.0573442	425.5
1272	4.30093e+02	1.27200e+03	0.0549138	426.0
1273	4.30545e+02	1.27300e+03	0.0523691	426.5
1274	4.31019e+02	1.27400e+03	0.0499175	427.0
1275	4.31519e+02	1.27500e+03	0.0475586	427.5
1276	4.32004e+02	1.27600e+03	0.0456737	428.0
1277	4.32513e+02	1.27700e+03	0.0437021	428.5
1278	4.33019e+02	1.27800e+03	0.0418069	429.0
1279	4.33502e+02	1.27900e+03	0.0399862	429.5
1280	4.33956e+02	1.28000e+03	0.0385434	430.0
1281	4.34433e+02	1.28100e+03	0.037018	430.5
1282	4.34916e+02	1.28200e+03	0.0355417	431.0
1283	4.35382e+02	1.28300e+03	0.0341168	431.5
1284	4.35927e+02	1.28400e+03	0.0329587	432.0
1285	4.36397e+02	1.28500e+03	0.0317425	432.5
1286	4.36865e+02	1.28600e+03	0.0305636	433.0
1287	4.37318e+02	1.28700e+03	0.0294236	433.5
1288	4.37756e+02	1.28800e+03	0.0284792	434.0
1289	4.38214e+02	1.28900e+03	0.0275029	434.5
1290	4.38682e+02	1.29000e+03	0.0265627	435.0
1291	4.39160e+02	1.29100e+03	0.0256568	435.5
1292	4.39595e+02	1.29200e+03	0.0249275	436.0
1293	4.40063e+02	1.29300e+03	0.0241683	436.5
1294	4.40535e+02	1.29400e+03	0.023437	437.0
1295	4.41055e+02	1.29500e+03	0.0227327	437.5
1296	4.41563e+02	1.29600e+03	0.0221676	438.0
1297	4.42216e+02	1.29700e+03	0.0215665	438.5
1298	4.42727e+02	1.29800e+03	0.0209811	439.0
1299	4.43222e+02	1.29900e+03	0.0204136	439.5
1300	4.43687e+02	1.30000e+03	0.0199305	440.0
1301	4.44158e+02	1.30100e+03	0.0194282	440.5
1302	4.44650e+02	1.30200e+03	0.0189374	441.0
1303	4.45122e+02	1.30300e+03	0.0184595	441.5
1304	4.45578e+02	1.30400e+03	0.0180455	442.0
1305	4.46041e+02	1.30500e+03	0.0176208	442.5
1306	4.46506e+02	1.30600e+03	0.0172074	443.0
1307	4.46972e+02	1.30700e+03	0.0168045	443.5
1308	4.47456e+02	1.30800e+03	0.016456	444.0
1309	4.47936e+02	1.30900e+03	0.0160967	444.5
1310	4.48444e+02	1.31000e+03	0.015745	445.0
1311	4.48932e+02	1.31100e+03	0.0154017	445.5
1312	4.49415e+02	1.31200e+03	0.0151029	446.0
1313	4.49915e+02	1.31300e+03	0.0147966	446.5
1314	4.50388e+02	1.31400e+03	0.0144976	447.0
1315	4.50861e+02	1.31500e+03	0.0142056	447.5
1316	4.51342e+02	1.31600e+03	0.0139548	448.0
1317	4.51834e+02	1.31700e+03	0.0137006	448.5
1318	4.52307e+02	1.31800e+03	0.0134556	449.0
1319	4.52808e+02	1.31900e+03	0.0132173	449.5
1320	4.53297e+02	1.32000e+03	0.0130194	450.0
1321	4.53783e+02	1.32100e+03	0.0128158	450.5
1322	4.54270e+02	1.32200e+03	0.0126207	451.0
1323	4.54782e+02	1.32300e+03	0.0124329	451.5
1324	4.55275e+02	1.32400e+03	0.0122816	452.0
1325	4.55769e+02	1.32500e+03	0.0121242	452.5
1326	4.56260e+02	1.32600e+03	0.0119719	453.0
1327	4.56752e+02	1.32700e+03	0.0118243	453.5
1328	4.57255e+02	1.32800e+03	0.0116999	454.0
1329	4.57737e+02	1.32900e+03	0.0115658	454.5
1330	4.58213e+02	1.33000e+03	0.0114355	455.0
1331	4.58704e+02	1.33100e+03	0.0113109	455.5
1332	4.59186e+02	1.33200e+03	0.0112072	456.0
1333	4.59688e+02	1.33300e+03	0.0111112	456.5
1334	4.60185e+02	1.33400e+03	0.011027	457.0
1335	4.60670e+02	1.33500e+03	0.0109515	457.5
1336	4.61169e+02	1.33600e+03	0.0109299	458.0
1337	4.61662e+02	1.33700e+03	0.0108989	458.5
1338	4.62136e+02	1.33800e+03	0.0108726	459.0
1339	4.62614e+02	1.33900e+03	0.0108511	459.5
1340	4.63082e+02	1.34000e+03	0.0108611	460.0
1341	4.63577e+02	1.34100e+03	0.0108534	460.5
1342	4.64068e+02	1.34200e+03	0.0108415	461.0
1343	4.64567e+02	1.34300e+03	0.0108291	461.5
1344	4.65067e+02	1.34400e+03	0.010809	462.0
1345	4.65580e+02	1.34500e+03	0.0107898	462.5
1346	4.66055e+02	1.34600e+03	0.0107692	463.0
1347	4.66587e+02	1.34700e+03	0.0107475	463.5
1348	4.67098e+02	1.34800e+03	0.0107216	464.0
1349	4.67558e+02	1.34900e+03	0.0106986	464.5
1350	4.68040e+02	1.35000e+03	0.0106766	465.0
1351	4.68475e+02	1.35100e+03	0.0106547	465.5
1352	4.68975e+02	1.35200e+03	0.0106313	466.0
1353	4.69519e+02	1.35300e+03	0.0106055	466.5
1354	4.70050e+02	1.35400e+03	0.0105777	467.0
1355	4.70556e+02	1.35500e+03	0.0105486	467.5
1356	4.71028e+02	1.35600e+03	0.0105144	468.0
1357	4.71502e+02	1.35700e+03	0.0104826	468.5
1358	4.72003e+02	1.35800e+03	0.0104511	469.0
1359	4.72533e+02	1.35900e+03	0.0104191	469.5
1360	4.72993e+02	1.36000e+03	0.0103845	470.0
1361	4.73617e+02	1.36100e+03	0.0103497	470.5
1362	4.74182e+02	1.36200e+03	0.0103154	471.0
1363	4.74700e+02	1.36300e+03	0.0102814	471.5
1364	4.75173e+02	1.36400e+03	0.0102473	472.0
1365	4.75610e+02	1.36500e+03	0.0102156	472.5
1366	4.76089e+02	1.36600e+03	0.0101858	473.0
1367	4.76542e+02	1.36700e+03	0.0101571	473.5
1368	4.76977e+02	1.36800e+03	0.0101352	474.0
1369	4.77473e+02	1.36900e+03	0.0101132	474.5
1370	4.77947e+02	1.37000e+03	0.0100936	475.0
1371	4.78465e+02	1.37100e+03	0.0100764	475.5
1372	4.78956e+02	1.37200e+03	0.0100672	476.0
1373	4.79449e+02	1.37300e+03	0.0100568	476.5
1374	4.79927e+02	1.37400e+03	0.0100485	477.0
1375	4.80417e+02	1.37500e+03	0.0100418	477.5
1376	4.80929e+02	1.37600e+03	0.0100422	478.0
1377	4.81443e+02	1.37700e+03	0.0100395	478.5
1378	4.81970e+02	1.37800e+03	0.0100364	479.0
1379	4.82466e+02	1.37900e+03	0.0100338	479.5
1380	4.82986e+02	1.38000e+03	0.0100311	480.0
1381	4.83503e+02	1.38100e+03	0.010025	480.5
1382	4.84007e+02	1.38200e+03	0.0100156	481.0
1383	4.84498e+02	1.38300e+03	0.0100039	481.5
1384	4.85013e+02	1.38400e+03	0.00998357	482.0
1385	4.85510e+02	1.38500e+03	0.0099635	482.5
1386	4.85995e+02	1.38600e+03	0.00994102	483.0
1387	4.86484e+02	1.38700e+03	0.00991685	483.5
1388	4.86960e+02	1.38800e+03	0.00988353	484.0
1389	4.87433e+02	1.38900e+03	0.00985431	484.5
1390	4.87939e+02	1.39000e+03	0.00982665	485.0
1391	4.88423e+02	1.39100e+03	0.00980032	485.5
1392	4.88923e+02	1.39200e+03	0.00977675	486.0
1393	4.89422e+02	1.39300e+03	0.00975445	486.5
1394	4.89902e+02	1.39400e+03	0.00973358	487.0
1395	4.90392e+02	1.39500e+03	0.00971408	487.5
1396	4.90874e+02	1.39600e+03	0.00970294	488.0
1397	4.91373e+02	1.39700e+03	0.00968909	488.5
1398	4.91864e+02	1.39800e+03	0.00967613	489.0
1399	4.92343e+02	1.39900e+03	0.00966412	489.5
1400	4.92829e+02	1.40000e+03	0.00965585	490.0
1401	4.93315e+02	1.40100e+03	0.00964531	490.5
1402	4.93792e+02	1.40200e+03	0.00963311	491.0
1403	4.94262e+02	1.40300e+03	0.00962031	491.5
1404	4.94737e+02	1.40400e+03	0.00960682	492.0
1405	4.95218e+02	1.40500e+03	0.00959271	492.5
1406	4.95687e+02	1.40600e+03	0.00957792	493.0
1407	4.96181e+02	1.40700e+03	0.00956254	493.5
1408	4.96655e+02	1.40800e+03	0.0095445	494.0
1409	4.97137e+02	1.40900e+03	0.00952866	494.5
1410	4.97629e+02	1.41000e+03	0.0095133	495.0
1411	4.98105e+02	1.41100e+03	0.00949786	495.5
1412	4.98595e+02	1.41200e+03	0.00948476	496.0
1413	4.99084e+02	1.41300e+03	0.00947276	496.5
1414	4.99570e+02	1.41400e+03	0.00946243	497.0
1415	5.00055e+02	1.41500e+03	0.00945342	497.5
1416	5.00566e+02	1.41600e+03	0.00944904	498.0
1417	5.01052e+02	1.41700e+03	0.0094426	498.5
1418	5.01558e+02	1.41800e+03	0.00943382	499.0
1419	5.02064e+02	1.41900e+03	0.00942254	499.5
1420	5.02559e+02	1.42000e+03	0.00940285	500.0
1421	5.03054e+02	1.42100e+03	0.00937928	500.5
1422	5.03516e+02	1.42200e+03	0.00935186	501.0
1423	5.04001e+02	1.42300e+03	0.00932156	501.5
1424	5.04482e+02	1.42400e+03	0.00927352	502.0
1425	5.04977e+02	1.42500e+03	0.00923493	502.5
1426	5.05472e+02	1.42600e+03	0.00919824	503.0
1427	5.05973e+02	1.42700e+03	0.00916145	503.5
1428	5.06434e+02	1.42800e+03	0.00912962	504.0
1429	5.06926e+02	1.42900e+03	0.00910213	504.5
1430	5.07411e+02	1.43000e+03	0.00907999	505.0
1431	5.07874e+02	1.43100e+03	0.0090613	505.5
1432	5.08341e+02	1.43200e+03	0.00906032	506.0
1433	5.08803e+02	1.43300e+03	0.00905718	506.5
1434	5.09296e+02	1.43400e+03	0.00905628	507.0
1435	5.09771e+02	1.43500e+03	0.00905688	507.5
1436	5.10257e+02	1.43600e+03	0.00906673	508.0
1437	5.10715e+02	1.43700e+03	0.0090683	508.5
1438	5.11203e+02	1.43800e+03	0.00906862	509.0
1439	5.11677e+02	1.43900e+03	0.00906959	509.5
1440	5.12155e+02	1.44000e+03	0.00906731	510.0
1441	5.12637e+02	1.44100e+03	0.00907019	510.5
1442	5.13144e+02	1.44200e+03	0.00907674	511.0
1443	5.13635e+02	1.44300e+03	0.00908513	511.5
1444	5.14118e+02	1.44400e+03	0.00910006	512.0
1445	5.14591e+02	1.44500e+03	0.00911113	512.5
1446	5.15067e+02	1.44600e+03	0.0091206	513.0
1447	5.15560e+02	1.44700e+03	0.00912937	513.5
1448	5.16025e+02	1.44800e+03	0.0091348	514.0
1449	5.16507e+02	1.44900e+03	0.00913843	514.5
1450	5.16983e+02	1.45000e+03	0.0091402	515.0
1451	5.17466e+02	1.45100e+03	0.0091404	515.5
1452	5.17945e+02	1.45200e+03	0.00912983	516.0
1453	5.18436e+02	1.45300e+03	0.00912107	516.5
1454	5.18912e+02	1.45400e+03	0.00911081	517.0
1455	5.19383e+02	1.45500e+03	0.00909894	517.5
1456	5.19864e+02	1.45600e+03	0.00907864	518.0
1457	5.20346e+02	1.45700e+03	0.00906103	518.5
1458	5.20831e+02	1.45800e+03	0.00904459	519.0
1459	5.21309e+02	1.45900e+03	0.00902894	519.5
1460	5.21797e+02	1.46000e+03	0.00901279	520.0
1461	5.22265e+02	1.46100e+03	0.00899837	520.5
1462	5.22746e+02	1.46200e+03	0.00898379	521.0
1463	5.23246e+02	1.46300e+03	0.00896829	521.5
1464	5.23743e+02	1.46400e+03	0.00895135	522.0
1465	5.24230e+02	1.46500e+03	0.00893135	522.5
1466	5.24696e+02	1.46600e+03	0.00891169	523.0
1467	5.25164e+02	1.46700e+03	0.00889375	523.5
1468	5.25635e+02	1.46800e+03	0.00887753	524.0
1469	5.26096e+02	1.46900e+03	0.00887029	524.5
1470	5.26572e+02	1.47000e+03	0.0088704	525.0
1471	5.27057e+02	1.47100e+03	0.00887512	525.5
1472	5.27529e+02	1.47200e+03	0.00890324	526.0
1473	5.28012e+02	1.47300e+03	0.00892322	526.5
1474	5.28505e+02	1.47400e+03	0.00894301	527.0
1475	5.28992e+02	1.47500e+03	0.00896341	527.5
1476	5.29466e+02	1.47600e+03	0.00899344	528.0
1477	5.29947e+02	1.47700e+03	0.00901901	528.5
1478	5.30433e+02	1.47800e+03	0.00904265	529.0
1479	5.30921e+02	1.47900e+03	0.00906588	529.5
1480	5.31414e+02	1.48000e+03	0.00908581	530.0
1481	5.31895e+02	1.48100e+03	0.00910266	530.5
1482	5.32369e+02	1.48200e+03	0.00911528	531.0
1483	5.32858e+02	1.48300e+03	0.00912497	531.5
1484	5.33328e+02	1.48400e+03	0.00911932	532.0
1485	5.33801e+02	1.48500e+03	0.00911237	532.5
1486	5.34279e+02	1.48600e+03	0.00909931	533.0
1487	5.34767e+02	1.48700e+03	0.00908165	533.5
1488	5.35254e+02	1.48800e+03	0.00904138	534.0
1489	5.35747e+02	1.48900e+03	0.0090087	534.5
1490	5.36230e+02	1.49000e+03	0.00897762	535.0
1491	5.36726e+02	1.49100e+03	0.00894702	535.5
1492	5.37226e+02	1.49200e+03	0.00891438	536.0
1493	5.37728e+02	1.49300e+03	0.00888789	536.5
1494	5.38217e+02	1.49400e+03	0.00886077	537.0
1495	5.38720e+02	1.49500e+03	0.00883158	537.5
1496	5.39200e+02	1.49600e+03	0.00880279	538.0
1497	5.39684e+02	1.49700e+03	0.00876411	538.5
1498	5.40158e+02	1.49800e+03	0.00872127	539.0
1499	5.40640e+02	1.49900e+03	0.00867718	539.5
1500	5.41128e+02	1.50000e+03	0.00862298	540.0
1501	5.41606e+02	1.50100e+03	0.00858646	540.5
1502	5.42083e+02	1.50200e+03	0.00856254	541.0
1503	5.42572e+02	1.50300e+03	0.00854685	541.5
1504	5.43053e+02	1.50400e+03	0.00857925	542.0
1505	5.43548e+02	1.50500e+03	0.00861312	542.5
1506	5.44040e+02	1.50600e+03	0.00865782	543.0
1507	5.44530e+02	1.50700e+03	0.00871016	543.5
1508	5.45022e+02	1.50800e+03	0.00880729	544.0
1509	5.45512e+02	1.50900e+03	0.00887654	544.5
1510	5.45990e+02	1.51000e+03	0.00893654	545.0
1511	5.46470e+02	1.51100e+03	0.00899195	545.5
1512	5.46951e+02	1.51200e+03	0.00901558	546.0
1513	5.47428e+02	1.51300e+03	0.00903292	546.5
1514	5.47900e+02	1.51400e+03	0.00904017	547.0
1515	5.48382e+02	1.51500e+03	0.00904071	547.5
1516	5.48855e+02	1.51600e+03	0.00899863	548.0
1517	5.49337e+02	1.51700e+03	0.00897733	548.5
1518	5.49826e+02	1.51800e+03	0.00895963	549.0
1519	5.50305e+02	1.51900e+03	0.00894224	549.5
1520	5.50782e+02	1.52000e+03	0.00892555	550.0
1521	5.51271e+02	1.52100e+03	0.00890941	550.5
1522	5.51756e+02	1.52200e+03	0.00889306	551.0
1523	5.52245e+02	1.52300e+03	0.00887685	551.5
1524	5.52736e+02	1.52400e+03	0.00886424	552.0
1525	5.53221e+02	1.52500e+03	0.00884884	552.5
1526	5.53686e+02	1.52600e+03	0.00883236	553.0
1527	5.54160e+02	1.52700e+03	0.00881557	553.5
1528	5.54647e+02	1.52800e+03	0.00879781	554.0
1529	5.55138e+02	1.52900e+03	0.00878119	554.5
1530	5.55634e+02	1.53000e+03	0.00876491	555.0
1531	5.56113e+02	1.53100e+03	0.00874906	555.5
1532	5.56599e+02	1.53200e+03	0.00873801	556.0
1533	5.57081e+02	1.53300e+03	0.00872821	556.5
1534	5.57560e+02	1.53400e+03	0.00872064	557.0
1535	5.58024e+02	1.53500e+03	0.00871489	557.5
1536	5.58486e+02	1.53600e+03	0.00872085	558.0
1537	5.58965e+02	1.53700e+03	0.00872791	558.5
1538	5.59450e+02	1.53800e+03	0.00873943	559.0
1539	5.59930e+02	1.53900e+03	0.00875426	559.5
1540	5.60429e+02	1.54000e+03	0.00878466	560.0
1541	5.60936e+02	1.54100e+03	0.00880913	560.5
1542	5.61435e+02	1.54200e+03	0.00883075	561.0
1543	5.61922e+02	1.54300e+03	0.00885041	561.5
1544	5.62412e+02	1.54400e+03	0.00886534	562.0
1545	5.62905e+02	1.54500e+03	0.00887072	562.5
1546	5.63401e+02	1.54600e+03	0.00886733	563.0
1547	5.63900e+02	1.54700e+03	0.00885856	563.5
1548	5.64378e+02	1.54800e+03	0.00881968	564.0
1549	5.64857e+02	1.54900e+03	0.00878962	564.5
1550	5.65347e+02	1.55000e+03	0.00875999	565.0
1551	5.65857e+02	1.55100e+03	0.00872991	565.5
1552	5.66370e+02	1.55200e+03	0.00869271	566.0
1553	5.66860e+02	1.55300e+03	0.0086664	566.5
1554	5.67327e+02	1.55400e+03	0.00864578	567.0
1555	5.67801e+02	1.55500e+03	0.00862833	567.5
1556	5.68288e+02	1.55600e+03	0.00863234	568.0
1557	5.68782e+02	1.55700e+03	0.00863308	568.5
1558	5.69251e+02	1.55800e+03	0.00863634	569.0
1559	5.69726e+02	1.55900e+03	0.00864166	569.5
1560	5.70203e+02	1.56000e+03	0.00866289	570.0
1561	5.70708e+02	1.56100e+03	0.00867809	570.5
1562	5.71182e+02	1.56200e+03	0.00869232	571.0
1563	5.71664e+02	1.56300e+03	0.00870628	571.5
1564	5.72163e+02	1.56400e+03	0.00871763	572.0
1565	5.72642e+02	1.56500e+03	0.00872521	572.5
1566	5.73134e+02	1.56600e+03	0.00872951	573.0
1567	5.73622e+02	1.56700e+03	0.00873111	573.5
1568	5.74114e+02	1.56800e+03	0.00871892	574.0
1569	5.74602e+02	1.56900e+03	0.00871026	574.5
1570	5.75080e+02	1.57000e+03	0.00870139	575.0
1571	5.75564e+02	1.57100e+03	0.00869188	575.5
1572	5.76048e+02	1.57200e+03	0.00867742	576.0
1573	5.76545e+02	1.57300e+03	0.00866941	576.5
1574	5.77023e+02	1.57400e+03	0.00866514	577.0
1575	5.77506e+02	1.57500e+03	0.00866247	577.5
1576	5.78003e+02	1.57600e+03	0.00866494	578.0
1577	5.78494e+02	1.57700e+03	0.00866228	578.5
1578	5.78993e+02	1.57800e+03	0.00865599	579.0
1579	5.79484e+02	1.57900e+03	0.00864742	579.5
1580	5.79971e+02	1.58000e+03	0.0086335	580.0
1581	5.80474e+02	1.58100e+03	0.00862149	580.5
1582	5.80971e+02	1.58200e+03	0.00861199	581.0
1583	5.81459e+02	1.58300e+03	0.00860462	581.5
1584	5.81946e+02	1.58400e+03	0.00860061	582.0
1585	5.82442e+02	1.58500e+03	0.00860098	582.5
1586	5.82944e+02	1.58600e+03	0.00860318	583.0
1587	5.83429e+02	1.58700e+03	0.00860606	583.5
1588	5.83924e+02	1.58800e+03	0.00861941	584.0
1589	5.84411e+02	1.58900e+03	0.00862478	584.5
1590	5.84926e+02	1.59000e+03	0.00862764	585.0
1591	5.85420e+02	1.59100e+03	0.00862952	585.5
1592	5.85912e+02	1.59200e+03	0.00862342	586.0
1593	5.86402e+02	1.59300e+03	0.00861816	586.5
1594	5.86891e+02	1.59400e+03	0.0086096	587.0
1595	5.87394e+02	1.59500e+03	0.00859808	587.5
1596	5.87891e+02	1.59600e+03	0.00857023	588.0
1597	5.88393e+02	1.59700e+03	0.00853863	588.5
1598	5.88889e+02	1.59800e+03	0.00850039	589.0
1599	5.89394e+02	1.59900e+03	0.0084576	589.5
1600	5.89905e+02	1.60000e+03	0.00838902	590.0
1601	5.90397e+02	1.60100e+03	0.00833094	590.5
1602	5.90905e+02	1.60200e+03	0.00827592	591.0
1603	5.91392e+02	1.60300e+03	0.00822257	591.5
1604	5.91878e+02	1.60400e+03	0.00818149	592.0
1605	5.92361e+02	1.60500e+03	0.00815453	592.5
1606	5.92850e+02	1.60600e+03	0.0081414	593.0
1607	5.93342e+02	1.60700e+03	0.00813788	593.5
1608	5.93835e+02	1.60800e+03	0.00819224	594.0
1609	5.94332e+02	1.60900e+03	0.0082361	594.5
1610	5.94819e+02	1.61000e+03	0.00828367	595.0
1611	5.95317e+02	1.61100e+03	0.00833513	595.5
1612	5.95815e+02	1.61200e+03	0.00841407	596.0
1613	5.96313e+02	1.61300e+03	0.00846982	596.5
1614	5.96806e+02	1.61400e+03	0.00851627	597.0
1615	5.97315e+02	1.61500e+03	0.00855803	597.5
1616	5.97828e+02	1.61600e+03	0.00856593	598.0
1617	5.98324e+02	1.61700e+03	0.00857496	598.5
1618	5.98819e+02	1.61800e+03	0.00857604	599.0
1619	5.99336e+02	1.61900e+03	0.00857082	599.5
1620	5.99845e+02	1.62000e+03	0.00853355	600.0
1621	6.00358e+02	1.62100e+03	0.00851037	600.5
1622	6.00872e+02	1.62200e+03	0.0084898	601.0
1623	6.01385e+02	1.62300e+03	0.00846983	601.5
1624	6.01892e+02	1.62400e+03	0.00844927	602.0
1625	6.02395e+02	1.62500e+03	0.00843325	602.5
1626	6.02904e+02	1.62600e+03	0.00841907	603.0
1627	6.03401e+02	1.62700e+03	0.00840554	603.5
1628	6.03913e+02	1.62800e+03	0.00840085	604.0
1629	6.04405e+02	1.62900e+03	0.00839097	604.5
1630	6.04897e+02	1.63000e+03	0.00837969	605.0
1631	6.05392e+02	1.63100e+03	0.00836802	605.5
1632	6.05906e+02	1.63200e+03	0.00835694	606.0
1633	6.06403e+02	1.63300e+03	0.00834854	606.5
1634	6.06907e+02	1.63400e+03	0.00834196	607.0
1635	6.07404e+02	1.63500e+03	0.00833644	607.5
1636	6.07904e+02	1.63600e+03	0.00833476	608.0
1637	6.08412e+02	1.63700e+03	0.00832968	608.5
1638	6.08910e+02	1.63800e+03	0.00832226	609.0
1639	6.09412e+02	1.63900e+03	0.00831354	609.5
1640	6.09906e+02	1.64000e+03	0.00830212	610.0
1641	6.10402e+02	1.64100e+03	0.00829114	610.5
1642	6.10906e+02	1.64200e+03	0.00828054	611.0
1643	6.11399e+02	1.64300e+03	0.0082706	611.5
1644	6.11901e+02	1.64400e+03	0.0082618	612.0
1645	6.12404e+02	1.64500e+03	0.0082561	612.5
1646	6.12902e+02	1.64600e+03	0.00825174	613.0
1647	6.13393e+02	1.64700e+03	0.0082477	613.5
1648	6.13895e+02	1.64800e+03	0.00825046	614.0
1649	6.14395e+02	1.64900e+03	0.00824893	614.5
1650	6.14890e+02	1.65000e+03	0.00824571	615.0
1651	6.15389e+02	1.65100e+03	0.00824188	615.5
1652	6.15890e+02	1.65200e+03	0.00823687	616.0
1653	6.16402e+02	1.65300e+03	0.00823547	616.5
1654	6.16889e+02	1.65400e+03	0.00823839	617.0
1655	6.17385e+02	1.65500e+03	0.00824441	617.5
1656	6.17896e+02	1.65600e+03	0.00826433	618.0
1657	6.18398e+02	1.65700e+03	0.00828667	618.5
1658	6.18900e+02	1.65800e+03	0.00831183	619.0
1659	6.19402e+02	1.65900e+03	0.00833834	619.5
1660	6.19907e+02	1.66000e+03	0.008378	620.0
1661	6.20416e+02	1.66100e+03	0.00840406	620.5
1662	6.20921e+02	1.66200e+03	0.00842168	621.0
1663	6.21428e+02	1.66300e+03	0.00843402	621.5
1664	6.21930e+02	1.66400e+03	0.00841947	622.0
1665	6.22431e+02	1.66500e+03	0.00840574	622.5
1666	6.22940e+02	1.66600e+03	0.00838805	623.0
1667	6.23465e+02	1.66700e+03	0.00836753	623.5
1668	6.23979e+02	1.66800e+03	0.0083284	624.0
1669	6.24489e+02	1.66900e+03	0.00830614	624.5
1670	6.24997e+02	1.67000e+03	0.00829057	625.0
1671	6.25505e+02	1.67100e+03	0.00827799	625.5
1672	6.26005e+02	1.67200e+03	0.00828572	626.0
1673	6.26504e+02	1.67300e+03	0.00828877	626.5
1674	6.27008e+02	1.67400e+03	0.00829315	627.0
1675	6.27519e+02	1.67500e+03	0.00829953	627.5
1676	6.28034e+02	1.67600e+03	0.00831695	628.0
1677	6.28551e+02	1.67700e+03	0.00832729	628.5
1678	6.29074e+02	1.67800e+03	0.00833476	629.0
1679	6.29600e+02	1.67900e+03	0.00834102	629.5
1680	6.30125e+02	1.68000e+03	0.00834401	630.0
1681	6.30644e+02	1.68100e+03	0.00834915	630.5
1682	6.31162e+02	1.68200e+03	0.00835605	631.0
1683	6.31671e+02	1.68300e+03	0.00836462	631.5
1684	6.32206e+02	1.68400e+03	0.00837975	632.0
1685	6.32728e+02	1.68500e+03	0.00839743	632.5
1686	6.33245e+02	1.68600e+03	0.00841649	633.0
1687	6.33780e+02	1.68700e+03	0.00843597	633.5
1688	6.34304e+02	1.68800e+03	0.00846429	634.0
1689	6.34827e+02	1.68900e+03	0.00848477	634.5
1690	6.35326e+02	1.69000e+03	0.00850117	635.0
1691	6.35840e+02	1.69100e+03	0.00851503	635.5
1692	6.36385e+02	1.69200e+03	0.00851524	636.0
1693	6.36936e+02	1.69300e+03	0.0085162	636.5
1694	6.37469e+02	1.69400e+03	0.00851324	637.0
1695	6.37995e+02	1.69500e+03	0.00850677	637.5
1696	6.38489e+02	1.69600e+03	0.00848061	638.0
1697	6.38999e+02	1.69700e+03	0.00845709	638.5
1698	6.39515e+02	1.69800e+03	0.00843001	639.0
1699	6.40010e+02	1.69900e+03	0.00839977	639.5
1700	6.40506e+02	1.70000e+03	0.0083561	640.0
1701	6.41013e+02	1.70100e+03	0.00832155	640.5
1702	6.41523e+02	1.70200e+03	0.00829091	641.0
1703	6.42047e+02	1.70300e+03	0.00826161	641.5
1704	6.42555e+02	1.70400e+03	0.00824	642.0
1705	6.43063e+02	1.70500e+03	0.00821988	642.5
1706	6.43585e+02	1.70600e+03	0.00820216	643.0
1707	6.44132e+02	1.70700e+03	0.00818628	643.5
1708	6.44685e+02	1.70800e+03	0.00818589	644.0
1709	6.45219e+02	1.70900e+03	0.00818232	644.5
1710	6.45743e+02	1.71000e+03	0.00817995	645.0
1711	6.46261e+02	1.71100e+03	0.00817843	645.5
1712	6.46786e+02	1.71200e+03	0.00818332	646.0
1713	6.47318e+02	1.71300e+03	0.0081842	646.5
1714	6.47893e+02	1.71400e+03	0.00818379	647.0
1715	6.48443e+02	1.71500e+03	0.00818264	647.5
1716	6.49073e+02	1.71600e+03	0.00817584	648.0
1717	6.49809e+02	1.71700e+03	0.00817026	648.5
1718	6.50492e+02	1.71800e+03	0.00816475	649.0
1719	6.51148e+02	1.71900e+03	0.00815877	649.5
1720	6.51963e+02	1.72000e+03	0.00814922	650.0
1721	6.52889e+02	1.72100e+03	0.00814382	650.5
1722	6.53693e+02	1.72200e+03	0.00814089	651.0
1723	6.54196e+02	1.72300e+03	0.00813884	651.5
1724	6.54814e+02	1.72400e+03	0.00814186	652.0
1725	6.55340e+02	1.72500e+03	0.00814295	652.5
1726	6.55890e+02	1.72600e+03	0.0081424	653.0
1727	6.56269e+02	1.72700e+03	0.00814071	653.5
1728	6.56434e+02	1.72800e+03	0.00814076	654.0
1729	6.56797e+02	1.72900e+03	0.00813967	654.5
1730	6.57206e+02	1.73000e+03	0.00813816	655.0
1731	6.57670e+02	1.73100e+03	0.00813666	655.5
1732	6.58113e+02	1.73200e+03	0.00813368	656.0
1733	6.58587e+02	1.73300e+03	0.00813234	656.5
1734	6.59069e+02	1.73400e+03	0.00813187	657.0
1735	6.59551e+02	1.73500e+03	0.00813163	657.5
1736	6.60039e+02	1.73600e+03	0.00813226	658.0
1737	6.60534e+02	1.73700e+03	0.00813219	658.5
1738	6.61021e+02	1.73800e+03	0.00813147	659.0
1739	6.61488e+02	1.73900e+03	0.0081302	659.5
1740	6.61990e+02	1.74000e+03	0.00812895	660.0
1741	6.62492e+02	1.74100e+03	0.00812938	660.5
1742	6.62981e+02	1.74200e+03	0.00813198	661.0
1743	6.63475e+02	1.74300e+03	0.0081363	661.5
1744	6.63961e+02	1.74400e+03	0.00814772	662.0
1745	6.64450e+02	1.74500e+03	0.00815953	662.5
1746	6.64941e+02	1.74600e+03	0.00817128	663.0
1747	6.65433e+02	1.74700e+03	0.00818216	663.5
1748	6.65924e+02	1.74800e+03	0.00819312	664.0
1749	6.66426e+02	1.74900e+03	0.00819679	664.5
1750	6.66916e+02	1.75000e+03	0.00819653	665.0
1751	6.67397e+02	1.75100e+03	0.00819397	665.5
1752	6.67879e+02	1.75200e+03	0.00817567	666.0
1753	6.68370e+02	1.75300e+03	0.0081645	666.5
1754	6.68864e+02	1.75400e+03	0.00815454	667.0
1755	6.69355e+02	1.75500e+03	0.00814475	667.5
1756	6.69844e+02	1.75600e+03	0.00813343	668.0
1757	6.70327e+02	1.75700e+03	0.00812333	668.5
1758	6.70828e+02	1.75800e+03	0.0081143	669.0
1759	6.71309e+02	1.75900e+03	0.00810588	669.5
1760	6.71796e+02	1.76000e+03	0.0081016	670.0
1761	6.72285e+02	1.76100e+03	0.00809681	670.5
1762	6.72789e+02	1.76200e+03	0.00809183	671.0
1763	6.73276e+02	1.76300e+03	0.00808715	671.5
1764	6.73780e+02	1.76400e+03	0.00808802	672.0
1765	6.74256e+02	1.76500e+03	0.00808782	672.5
1766	6.74735e+02	1.76600e+03	0.00808768	673.0
1767	6.75215e+02	1.76700e+03	0.00808794	673.5
1768	6.75710e+02	1.76800e+03	0.00809008	674.0
1769	6.76203e+02	1.76900e+03	0.00809068	674.5
1770	6.76689e+02	1.77000e+03	0.00809063	675.0
1771	6.77183e+02	1.77100e+03	0.00809038	675.5
1772	6.77689e+02	1.77200e+03	0.00808937	676.0
1773	6.78178e+02	1.77300e+03	0.00808903	676.5
1774	6.78659e+02	1.77400e+03	0.00808816	677.0
1775	6.79142e+02	1.77500e+03	0.008086	677.5
1776	6.79646e+02	1.77600e+03	0.00807966	678.0
1777	6.80123e+02	1.77700e+03	0.00807259	678.5
1778	6.80618e+02	1.77800e+03	0.00806426	679.0
1779	6.81096e+02	1.77900e+03	0.00805467	679.5
1780	6.81590e+02	1.78000e+03	0.00803854	680.0
1781	6.82082e+02	1.78100e+03	0.00802585	680.5
1782	6.82582e+02	1.78200e+03	0.00801329	681.0
1783	6.83076e+02	1.78300e+03	0.00800003	681.5
1784	6.83562e+02	1.78400e+03	0.00798422	682.0
1785	6.84056e+02	1.78500e+03	0.00796879	682.5
1786	6.84534e+02	1.78600e+03	0.00795472	683.0
1787	6.85024e+02	1.78700e+03	0.00794158	683.5
1788	6.85514e+02	1.78800e+03	0.00792805	684.0
1789	6.86007e+02	1.78900e+03	0.00791766	684.5
1790	6.86492e+02	1.79000e+03	0.00791082	685.0
1791	6.86960e+02	1.79100e+03	0.00790673	685.5
1792	6.87438e+02	1.79200e+03	0.0079143	686.0
1793	6.87922e+02	1.79300e+03	0.00792032	686.5
1794	6.88425e+02	1.79400e+03	0.00792739	687.0
1795	6.88644e+02	1.79500e+03	0.00793561	687.5
1796	6.88845e+02	1.79600e+03	0.00795446	688.0
1797	6.89157e+02	1.79700e+03	0.0079692	688.5
1798	6.89514e+02	1.79800e+03	0.00798308	689.0
1799	6.89875e+02	1.79900e+03	0.00799588	689.5
1800	6.90240e+02	1.80000e+03	0.00801046	690.0
1801	6.90582e+02	1.80100e+03	0.00802108	690.5
1802	6.90911e+02	1.80200e+03	0.00802545	691.0
1803	6.91226e+02	1.80300e+03	0.00802547	691.5
1804	6.91549e+02	1.80400e+03	0.00802237	692.0
1805	6.91849e+02	1.80500e+03	0.00801987	692.5
1806	6.92143e+02	1.80600e+03	0.0080159	693.0
1807	6.92430e+02	1.80700e+03	0.00801099	693.5
1808	6.92718e+02	1.80800e+03	0.00800449	694.0
1809	6.92985e+02	1.80900e+03	0.00800301	694.5
1810	6.93255e+02	1.81000e+03	0.00800519	695.0
1811	6.93499e+02	1.81100e+03	0.00800937	695.5
1812	6.93764e+02	1.81200e+03	0.00802027	696.0
1813	6.94006e+02	1.81300e+03	0.00802957	696.5
1814	6.94246e+02	1.81400e+03	0.00803938	697.0
1815	6.94474e+02	1.81500e+03	0.00804944	697.5
1816	6.94700e+02	1.81600e+03	0.00805874	698.0
1817	6.94914e+02	1.81700e+03	0.00806311	698.5
1818	6.95139e+02	1.81800e+03	0.00806326	699.0
1819	6.95350e+02	1.81900e+03	0.00806036	699.5
1820	6.95572e+02	1.82000e+03	0.0080405	700.0
1821	6.95782e+02	1.82100e+03	0.00802292	700.0
1822	6.95974e+02	1.82200e+03	0.00800503	700.0
1823	6.96159e+02	1.82300e+03	0.0079866	700.0
1824	6.96331e+02	1.82400e+03	0.00795863	700.0
1825	6.96523e+02	1.82500e+03	0.00793858	700.0
1826	6.96712e+02	1.82600e+03	0.00792113	700.0
1827	6.96885e+02	1.82700e+03	0.0079049	700.0
1828	6.97060e+02	1.82800e+03	0.00789426	700.0
1829	6.97259e+02	1.82900e+03	0.00788079	700.0
1830	6.97429e+02	1.83000e+03	0.00786736	700.0
1831	6.97600e+02	1.83100e+03	0.00785427	700.0
1832	6.97751e+02	1.83200e+03	0.00784121	700.0
1833	6.97923e+02	1.83300e+03	0.00782948	700.0
1834	6.98087e+02	1.83400e+03	0.00781996	700.0
1835	6.98232e+02	1.83500e+03	0.00781142	700.0
1836	6.98374e+02	1.83600e+03	0.00780952	700.0
1837	6.98505e+02	1.83700e+03	0.00780911	700.0
1838	6.98639e+02	1.83800e+03	0.00781033	700.0
1839	6.98779e+02	1.83900e+03	0.00781325	700.0
1840	6.98914e+02	1.84000e+03	0.00783118	700.0
1841	6.99062e+02	1.84100e+03	0.00784932	700.0
1842	6.99219e+02	1.84200e+03	0.00787104	700.0
1843	6.99626e+02	1.84300e+03	0.00789446	700.0
1844	6.99368e+02	1.84400e+03	0.00792783	700.0
1845	6.99273e+02	1.84500e+03	0.00795463	700.0
1846	6.99216e+02	1.84600e+03	0.00797738	700.0
1847	6.99190e+02	1.84700e+03	0.00799738	700.0
1848	6.99192e+02	1.84800e+03	0.00800652	700.0
1849	6.99201e+02	1.84900e+03	0.00801301	700.0
1850	6.99228e+02	1.85000e+03	0.00801625	700.0
1851	6.99231e+02	1.85100e+03	0.00801767	700.0
1852	6.99254e+02	1.85200e+03	0.00799951	700.0
1853	6.99305e+02	1.85300e+03	0.00798793	700.0
1854	6.99336e+02	1.85400e+03	0.00797873	700.0
1855	6.99374e+02	1.85500e+03	0.00797057	700.0
1856	6.99418e+02	1.85600e+03	0.00796201	700.0
1857	6.99461e+02	1.85700e+03	0.00795668	700.0
1858	6.99505e+02	1.85800e+03	0.00794975	700.0
1859	6.99548e+02	1.85900e+03	0.00794109	700.0
1860	6.99573e+02	1.86000e+03	0.00793842	700.0
1861	6.99600e+02	1.86100e+03	0.00793237	700.0
1862	6.99640e+02	1.86200e+03	0.00792616	700.0
1863	6.99661e+02	1.86300e+03	0.00792035	700.0
1864	6.99712e+02	1.86400e+03	0.00790907	700.0
1865	6.99747e+02	1.86500e+03	0.00789789	700.0
1866	6.99776e+02	1.86600e+03	0.00788714	700.0
1867	6.99820e+02	1.86700e+03	0.00787766	700.0
1868	6.99839e+02	1.86800e+03	0.00787276	700.0
1869	6.99874e+02	1.86900e+03	0.00787169	700.0
1870	6.99909e+02	1.87000e+03	0.0078742	700.0
1871	6.99946e+02	1.87100e+03	0.007879	700.0
1872	6.99979e+02	1.87200e+03	0.00789708	700.0
1873	7.00012e+02	1.87300e+03	0.00791026	700.0
1874	7.00035e+02	1.87400e+03	0.0079231	700.0
1875	7.00068e+02	1.87500e+03	0.00793621	700.0
1876	7.00095e+02	1.87600e+03	0.00795066	700.0
1877	7.00132e+02	1.87700e+03	0.0079621	700.0
1878	7.00147e+02	1.87800e+03	0.00797163	700.0
1879	7.00171e+02	1.87900e+03	0.0079797	700.0
1880	7.00194e+02	1.88000e+03	0.00797479	700.0
1881	7.00227e+02	1.88100e+03	0.00796896	700.0
1882	7.00259e+02	1.88200e+03	0.00796203	700.0
1883	7.00278e+02	1.88300e+03	0.00795441	700.0
1884	7.00299e+02	1.88400e+03	0.00793628	700.0
1885	7.00317e+02	1.88500e+03	0.00792565	700.0
1886	7.00350e+02	1.88600e+03	0.00791731	700.0
1887	7.00361e+02	1.88700e+03	0.00790973	700.0
1888	7.00387e+02	1.88800e+03	0.00790687	700.0
1889	7.00403e+02	1.88900e+03	0.00790122	700.0
1890	7.00436e+02	1.89000e+03	0.00789478	700.0
1891	7.00448e+02	1.89100e+03	0.00788803	700.0
1892	7.00471e+02	1.89200e+03	0.00787931	700.0
1893	7.00491e+02	1.89300e+03	0.00787028	700.0
1894	7.00517e+02	1.89400e+03	0.00786094	700.0
1895	7.00527e+02	1.89500e+03	0.00785147	700.0
1896	7.00555e+02	1.89600e+03	0.00784076	700.0
1897	7.00563e+02	1.89700e+03	0.00783212	700.0
1898	7.00580e+02	1.89800e+03	0.00782345	700.0
1899	7.00597e+02	1.89900e+03	0.00781316	700.0
1900	7.00624e+02	1.90000e+03	0.00779935	700.0
1901	7.00638e+02	1.90100e+03	0.00778445	700.0
1902	7.00662e+02	1.90200e+03	0.00776984	700.0
1903	7.00675e+02	1.90300e+03	0.00775559	700.0
1904	7.00695e+02	1.90400e+03	0.00773699	700.0
1905	7.00698e+02	1.90500e+03	0.00772674	700.0
1906	7.00725e+02	1.90600e+03	0.00772207	700.0
1907	7.00737e+02	1.90700e+03	0.00772029	700.0
1908	7.00748e+02	1.90800e+03	0.00773191	700.0
1909	7.00765e+02	1.90900e+03	0.00773785	700.0
1910	7.00783e+02	1.91000e+03	0.00774148	700.0
1911	7.00803e+02	1.91100e+03	0.00774395	700.0
1912	7.00813e+02	1.91200e+03	0.00774749	700.0
1913	7.00826e+02	1.91300e+03	0.00774695	700.0
1914	7.00844e+02	1.91400e+03	0.00774431	700.0
1915	7.00859e+02	1.91500e+03	0.00774068	700.0
1916	7.00864e+02	1.91600e+03	0.00773062	700.0
1917	7.00884e+02	1.91700e+03	0.0077259	700.0
1918	7.00892e+02	1.91800e+03	0.00772335	700.0
1919	7.00902e+02	1.91900e+03	0.00772189	700.0
1920	7.00922e+02	1.92000e+03	0.00772706	700.0
1921	7.00937e+02	1.92100e+03	0.00773169	700.0
1922	7.00949e+02	1.92200e+03	0.00773728	700.0
1923	7.00955e+02	1.92300e+03	0.00774364	700.0
1924	7.00958e+02	1.92400e+03	0.00775634	700.0
1925	7.00978e+02	1.92500e+03	0.00776971	700.0
1926	7.00985e+02	1.92600e+03	0.00778748	700.0
1927	7.00985e+02	1.92700e+03	0.00780788	700.0
1928	7.00996e+02	1.92800e+03	0.00783423	700.0
1929	7.01005e+02	1.92900e+03	0.0078579	700.0
1930	7.01013e+02	1.93000e+03	0.00788052	700.0
1931	7.01024e+02	1.93100e+03	0.0079025	700.0
1932	7.01029e+02	1.93200e+03	0.00792395	700.0
1933	7.01033e+02	1.93300e+03	0.0079418	700.0
1934	7.01047e+02	1.93400e+03	0.00795712	700.0
1935	7.01046e+02	1.93500e+03	0.00797093	700.0
1936	7.01052e+02	1.93600e+03	0.00797463	700.0
1937	7.01058e+02	1.93700e+03	0.00798066	700.0
1938	7.01070e+02	1.93800e+03	0.00798502	700.0
1939	7.01079e+02	1.93900e+03	0.00798762	700.0
1940	7.01076e+02	1.94000e+03	0.00798076	700.0
1941	7.01085e+02	1.94100e+03	0.00797405	700.0
1942	7.01094e+02	1.94200e+03	0.00796514	700.0
1943	7.01095e+02	1.94300e+03	0.00795449	700.0
1944	7.01103e+02	1.94400e+03	0.00793303	700.0
1945	7.01105e+02	1.94500e+03	0.00791525	700.0
1946	7.01115e+02	1.94600e+03	0.00789937	700.0
1947	7.01127e+02	1.94700e+03	0.00788572	700.0
1948	7.01131e+02	1.94800e+03	0.00787525	700.0
1949	7.01123e+02	1.94900e+03	0.00786783	700.0
1950	7.01133e+02	1.95000e+03	0.00786545	700.0
1951	7.01143e+02	1.95100e+03	0.0078669	700.0
1952	7.01143e+02	1.95200e+03	0.00788219	700.0
1953	7.01136e+02	1.95300e+03	0.00789156	700.0
1954	7.01149e+02	1.95400e+03	0.00790016	700.0
1955	7.01162e+02	1.95500e+03	0.00790879	700.0
1956	7.01164e+02	1.95600e+03	0.0079201	700.0
1957	7.01177e+02	1.95700e+03	0.0079282	700.0
1958	7.01180e+02	1.95800e+03	0.00793443	700.0
1959	7.01175e+02	1.95900e+03	0.00793961	700.0
1960	7.01184e+02	1.96000e+03	0.00793787	700.0
1961	7.01182e+02	1.96100e+03	0.00793677	700.0
1962	7.01178e+02	1.96200e+03	0.00793472	700.0
1963	7.01194e+02	1.96300e+03	0.00793186	700.0
1964	7.01187e+02	1.96400e+03	0.00792332	700.0
1965	7.01194e+02	1.96500e+03	0.00791692	700.0
1966	7.01195e+02	1.96600e+03	0.00791018	700.0
1967	7.01203e+02	1.96700e+03	0.00790284	700.0
1968	7.01209e+02	1.96800e+03	0.00789315	700.0
1969	7.01207e+02	1.96900e+03	0.00788339	700.0
1970	7.01212e+02	1.97000e+03	0.00787324	700.0
1971	7.01216e+02	1.97100e+03	0.00786277	700.0
1972	7.01211e+02	1.97200e+03	0.00784945	700.0
1973	7.01213e+02	1.97300e+03	0.00783708	700.0
1974	7.01230e+02	1.97400e+03	0.00782537	700.0
1975	7.01227e+02	1.97500e+03	0.0078151	700.0
1976	7.01229e+02	1.97600e+03	0.00781123	700.0
1977	7.01241e+02	1.97700e+03	0.00780927	700.0
1978	7.01234e+02	1.97800e+03	0.0078088	700.0
1979	7.01236e+02	1.97900e+03	0.00780934	700.0
1980	7.01243e+02	1.98000e+03	0.00782118	700.0
1981	7.01245e+02	1.98100e+03	0.00782833	700.0
1982	7.01244e+02	1.98200e+03	0.00783492	700.0
1983	7.01241e+02	1.98300e+03	0.00784165	700.0
1984	7.01244e+02	1.98400e+03	0.00784804	700.0
1985	7.01253e+02	1.98500e+03	0.00785274	700.0
1986	7.01250e+02	1.98600e+03	0.00785578	700.0
1987	7.01258e+02	1.98700e+03	0.00785766	700.0
1988	7.01252e+02	1.98800e+03	0.00785176	700.0
1989	7.01251e+02	1.98900e+03	0.00784491	700.0
1990	7.01256e+02	1.99000e+03	0.00783527	700.0
1991	7.01247e+02	1.99100e+03	0.0078235	700.0
1992	7.01242e+02	1.99200e+03	0.00780019	700.0
1993	7.01253e+02	1.99300e+03	0.00778081	700.0
1994	7.01251e+02	1.99400e+03	0.00776272	700.0
1995	7.01239e+02	1.99500e+03	0.00774592	700.0
1996	7.01237e+02	1.99600e+03	0.00773635	700.0
1997	7.01234e+02	1.99700e+03	0.00773266	700.0
1998	7.01243e+02	1.99800e+03	0.00773216	700.0
1999	7.01245e+02	1.99900e+03	0.00773335	700.0
2000	7.01243e+02	2.00000e+03	0.00775471	700.0
2001	7.01241e+02	2.00100e+03	0.00777103	700.0
2002	7.01243e+02	2.00200e+03	0.00778876	700.0
2003	7.01240e+02	2.00300e+03	0.00780694	700.0
2004	7.01239e+02	2.00400e+03	0.00782769	700.0
2005	7.01231e+02	2.00500e+03	0.00784419	700.0
2006	7.01238e+02	2.00600e+03	0.00785778	700.0
2007	7.01239e+02	2.00700e+03	0.00786946	700.0
2008	7.01241e+02	2.00800e+03	0.00787202	700.0
2009	7.01236e+02	2.00900e+03	0.00787465	700.0
2010	7.01230e+02	2.01000e+03	0.00787512	700.0
2011	7.01240e+02	2.01100e+03	0.00787392	700.0
2012	7.01239e+02	2.01200e+03	0.00786219	700.0
2013	7.01245e+02	2.01300e+03	0.00785388	700.0
2014	7.01216e+02	2.01400e+03	0.00784487	700.0
2015	7.01222e+02	2.01500e+03	0.00783473	700.0
2016	7.01212e+02	2.01600e+03	0.00782016	700.0
2017	7.01209e+02	2.01700e+03	0.00781026	700.0
2018	7.01192e+02	2.01800e+03	0.00780332	700.0
2019	7.01190e+02	2.01900e+03	0.00779673	700.0
2020	7.01187e+02	2.02000e+03	0.00779083	700.0
2021	7.01172e+02	2.02100e+03	0.00778459	700.0
2022	7.01180e+02	2.02200e+03	0.00777875	700.0
2023	7.01168e+02	2.02300e+03	0.00777323	700.0
2024	7.01160e+02	2.02400e+03	0.00777178	700.0
2025	7.01159e+02	2.02500e+03	0.00777101	700.0
2026	7.01154e+02	2.02600e+03	0.00777134	700.0
2027	7.01154e+02	2.02700e+03	0.00777245	700.0
2028	7.01143e+02	2.02800e+03	0.00777822	700.0
2029	7.01142e+02	2.02900e+03	0.00778101	700.0
2030	7.01141e+02	2.03000e+03	0.00778239	700.0
2031	7.01142e+02	2.03100e+03	0.00778293	700.0
2032	7.01137e+02	2.03200e+03	0.00777853	700.0
2033	7.01134e+02	2.03300e+03	0.00777245	700.0
2034	7.01130e+02	2.03400e+03	0.00776513	700.0
2035	7.01132e+02	2.03500e+03	0.00775841	700.0
2036	7.01124e+02	2.03600e+03	0.00774918	700.0
2037	7.01121e+02	2.03700e+03	0.00774382	700.0
2038	7.01127e+02	2.03800e+03	0.00774095	700.0
2039	7.01118e+02	2.03900e+03	0.00774077	700.0
2040	7.01120e+02	2.04000e+03	0.0077532	700.0
2041	7.01113e+02	2.04100e+03	0.00776506	700.0
2042	7.01111e+02	2.04200e+03	0.0077786	700.0
2043	7.01104e+02	2.04300e+03	0.00779214	700.0
2044	7.01111e+02	2.04400e+03	0.00781178	700.0
2045	7.01111e+02	2.04500e+03	0.00782493	700.0
2046	7.01101e+02	2.04600e+03	0.00783556	700.0
2047	7.01104e+02	2.04700e+03	0.00784507	700.0
2048	7.01091e+02	2.04800e+03	0.00784846	700.0
2049	7.01090e+02	2.04900e+03	0.00785625	700.0
2050	7.01090e+02	2.05000e+03	0.00786817	700.0
2051	7.01090e+02	2.05100e+03	0.00788321	700.0
2052	7.01073e+02	2.05200e+03	0.00790197	700.0
2053	7.01074e+02	2.05300e+03	0.00791835	700.0
2054	7.01076e+02	2.05400e+03	0.00793271	700.0
2055	7.01080e+02	2.05500e+03	0.00794549	700.0
2056	7.01068e+02	2.05600e+03	0.00795394	700.0
2057	7.01068e+02	2.05700e+03	0.00795732	700.0
2058	7.01061e+02	2.05800e+03	0.00795635	700.0
2059	7.01071e+02	2.05900e+03	0.00795266	700.0
2060	7.01062e+02	2.06000e+03	0.0079314	700.0
2061	7.01052e+02	2.06100e+03	0.00791607	700.0
2062	7.01051e+02	2.06200e+03	0.00790087	700.0
2063	7.01053e+02	2.06300e+03	0.0078851	700.0
2064	7.01056e+02	2.06400e+03	0.00786635	700.0
2065	7.01057e+02	2.06500e+03	0.00785173	700.0
2066	7.01046e+02	2.06600e+03	0.00783911	700.0
2067	7.01045e+02	2.06700e+03	0.00782752	700.0
2068	7.01049e+02	2.06800e+03	0.00782263	700.0
2069	7.01044e+02	2.06900e+03	0.00781561	700.0
2070	7.01042e+02	2.07000e+03	0.00780829	700.0
2071	7.01038e+02	2.07100e+03	0.0078009	700.0
2072	7.01035e+02	2.07200e+03	0.00779321	700.0
2073	7.01039e+02	2.07300e+03	0.00778232	700.0
2074	7.01030e+02	2.07400e+03	0.00776875	700.0
2075	7.01028e+02	2.07500e+03	0.00775342	700.0
2076	7.01021e+02	2.07600e+03	0.00772831	700.0
2077	7.01018e+02	2.07700e+03	0.00770492	700.0
2078	7.01018e+02	2.07800e+03	0.00768094	700.0
2079	7.01021e+02	2.07900e+03	0.00765638	700.0
2080	7.01020e+02	2.08000e+03	0.00762903	700.0
2081	7.01006e+02	2.08100e+03	0.0076073	700.0
2082	7.01012e+02	2.08200e+03	0.00758912	700.0
2083	7.01011e+02	2.08300e+03	0.00757312	700.0
2084	7.01012e+02	2.08400e+03	0.00757548	700.0
2085	7.01005e+02	2.08500e+03	0.00758148	700.0
2086	7.00997e+02	2.08600e+03	0.00759338	700.0
2087	7.00999e+02	2.08700e+03	0.0076087	700.0
2088	7.00996e+02	2.08800e+03	0.00764693	700.0
2089	7.01005e+02	2.08900e+03	0.00767491	700.0
2090	7.01004e+02	2.09000e+03	0.00770056	700.0
2091	7.01002e+02	2.09100e+03	0.00772546	700.0
2092	7.00995e+02	2.09200e+03	0.00774711	700.0
2093	7.00995e+02	2.09300e+03	0.00776367	700.0
2094	7.00995e+02	2.09400e+03	0.00777579	700.0
2095	7.00994e+02	2.09500e+03	0.00778508	700.0
2096	7.00989e+02	2.09600e+03	0.00777647	700.0
2097	7.00989e+02	2.09700e+03	0.00777213	700.0
2098	7.00992e+02	2.09800e+03	0.0077667	700.0
2099	7.00991e+02	2.09900e+03	0.00775995	700.0
2100	7.00987e+02	2.10000e+03	0.00774538	700.0
2101	7.00981e+02	2.10100e+03	0.00773702	700.0
2102	7.00975e+02	2.10200e+03	0.0077339	700.0
2103	7.00983e+02	2.10300e+03	0.00773444	700.0
2104	7.00977e+02	2.10400e+03	0.00774158	700.0
2105	7.00973e+02	2.10500e+03	0.00774538	700.0
2106	7.00971e+02	2.10600e+03	0.0077472	700.0
2107	7.00976e+02	2.10700e+03	0.00774767	700.0
2108	7.00974e+02	2.10800e+03	0.0077456	700.0
2109	7.00969e+02	2.10900e+03	0.0077382	700.0
2110	7.00962e+02	2.11000e+03	0.0077267	700.0
2111	7.00954e+02	2.11100e+03	0.00771268	700.0
2112	7.00957e+02	2.11200e+03	0.00768289	700.0
2113	7.00961e+02	2.11300e+03	0.007661	700.0
2114	7.00964e+02	2.11400e+03	0.007643	700.0
2115	7.00961e+02	2.11500e+03	0.00762653	700.0
2116	7.00951e+02	2.11600e+03	0.00761001	700.0
2117	7.00946e+02	2.11700e+03	0.00759531	700.0
2118	7.00953e+02	2.11800e+03	0.00758236	700.0
2119	7.00954e+02	2.11900e+03	0.00757054	700.0
2120	7.00952e+02	2.12000e+03	0.00756804	700.0
2121	7.00952e+02	2.12100e+03	0.00756479	700.0
2122	7.00955e+02	2.12200e+03	0.00756368	700.0
2123	7.00960e+02	2.12300e+03	0.00756447	700.0
2124	7.00951e+02	2.12400e+03	0.00757529	700.0
2125	7.00949e+02	2.12500e+03	0.00758392	700.0
2126	7.00943e+02	2.12600e+03	0.00759305	700.0
2127	7.00945e+02	2.12700e+03	0.00760272	700.0
2128	7.00950e+02	2.12800e+03	0.00762279	700.0
2129	7.00952e+02	2.12900e+03	0.00764192	700.0
2130	7.00942e+02	2.13000e+03	0.00765974	700.0
2131	7.00933e+02	2.13100e+03	0.00767658	700.0
2132	7.00933e+02	2.13200e+03	0.00769704	700.0
2133	7.00934e+02	2.13300e+03	0.00771585	700.0
2134	7.00935e+02	2.13400e+03	0.00773371	700.0
2135	7.00935e+02	2.13500e+03	0.00775006	700.0
2136	7.00923e+02	2.13600e+03	0.0077585	700.0
2137	7.00933e+02	2.13700e+03	0.00776641	700.0
2138	7.00932e+02	2.13800e+03	0.0077716	700.0
2139	7.00925e+02	2.13900e+03	0.0077747	700.0
2140	7.00929e+02	2.14000e+03	0.00776685	700.0
2141	7.00929e+02	2.14100e+03	0.00776149	700.0
2142	7.00916e+02	2.14200e+03	0.00775534	700.0
2143	7.00925e+02	2.14300e+03	0.00774825	700.0
2144	7.00936e+02	2.14400e+03	0.00773486	700.0
2145	7.00924e+02	2.14500e+03	0.00772415	700.0
2146	7.00920e+02	2.14600e+03	0.00771444	700.0
2147	7.00923e+02	2.14700e+03	0.00770635	700.0
2148	7.00919e+02	2.14800e+03	0.00770428	700.0
2149	7.00912e+02	2.14900e+03	0.00770401	700.0
2150	7.00908e+02	2.15000e+03	0.00770766	700.0
2151	7.00907e+02	2.15100e+03	0.00771471	700.0
2152	7.00906e+02	2.15200e+03	0.00773417	700.0
2153	7.00903e+02	2.15300e+03	0.00774741	700.0
2154	7.00912e+02	2.15400e+03	0.00775881	700.0
2155	7.00908e+02	2.15500e+03	0.00776952	700.0
2156	7.00903e+02	2.15600e+03	0.00777473	700.0
2157	7.00898e+02	2.15700e+03	0.00777372	700.0
2158	7.00896e+02	2.15800e+03	0.00776923	700.0
2159	7.00895e+02	2.15900e+03	0.00776338	700.0
2160	7.00903e+02	2.16000e+03	0.00774352	700.0
2161	7.00893e+02	2.16100e+03	0.00773115	700.0
2162	7.00882e+02	2.16200e+03	0.00771996	700.0
2163	7.00883e+02	2.16300e+03	0.00770871	700.0
2164	7.00884e+02	2.16400e+03	0.00769814	700.0
2165	7.00885e+02	2.16500e+03	0.00768824	700.0
2166	7.00886e+02	2.16600e+03	0.00768286	700.0
2167	7.00887e+02	2.16700e+03	0.00768106	700.0
2168	7.00882e+02	2.16800e+03	0.00768306	700.0
2169	7.00877e+02	2.16900e+03	0.00768374	700.0
2170	7.00867e+02	2.17000e+03	0.00768361	700.0
2171	7.00881e+02	2.17100e+03	0.00768286	700.0
2172	7.00883e+02	2.17200e+03	0.0076836	700.0
2173	7.00871e+02	2.17300e+03	0.0076803	700.0
2174	7.00870e+02	2.17400e+03	0.00767505	700.0
2175	7.00870e+02	2.17500e+03	0.00766886	700.0
2176	7.00873e+02	2.17600e+03	0.00765498	700.0
2177	7.00867e+02	2.17700e+03	0.00764389	700.0
2178	7.00867e+02	2.17800e+03	0.00763207	700.0
2179	7.00870e+02	2.17900e+03	0.00761923	700.0
2180	7.00873e+02	2.18000e+03	0.00760239	700.0
2181	7.00865e+02	2.18100e+03	0.00758585	700.0
2182	7.00856e+02	2.18200e+03	0.00757033	700.0
2183	7.00860e+02	2.18300e+03	0.00755685	700.0
2184	7.00867e+02	2.18400e+03	0.00754972	700.0
2185	7.00860e+02	2.18500e+03	0.0075466	700.0
2186	7.00864e+02	2.18600e+03	0.00754581	700.0
2187	7.00859e+02	2.18700e+03	0.0075463	700.0
2188	7.00864e+02	2.18800e+03	0.00756238	700.0
2189	7.00866e+02	2.18900e+03	0.00757336	700.0
2190	7.00855e+02	2.19000e+03	0.00758742	700.0
2191	7.00858e+02	2.19100e+03	0.00760411	700.0
2192	7.00860e+02	2.19200e+03	0.00762219	700.0
2193	7.00855e+02	2.19300e+03	0.00763471	700.0
2194	7.00855e+02	2.19400e+03	0.00764334	700.0
2195	7.00847e+02	2.19500e+03	0.00765075	700.0
2196	7.00859e+02	2.19600e+03	0.00765309	700.0
2197	7.00852e+02	2.19700e+03	0.00765561	700.0
2198	7.00858e+02	2.19800e+03	0.00765694	700.0
2199	7.00857e+02	2.19900e+03	0.00765736	700.0
2200	7.00860e+02	2.20000e+03	0.00764935	700.0
2201	7.00858e+02	2.20100e+03	0.00764405	700.0
2202	7.00853e+02	2.20200e+03	0.00764186	700.0
2203	7.00857e+02	2.20300e+03	0.00764179	700.0
2204	7.00857e+02	2.20400e+03	0.00763788	700.0
2205	7.00846e+02	2.20500e+03	0.00763345	700.0
2206	7.00848e+02	2.20600e+03	0.00762747	700.0
2207	7.00857e+02	2.20700e+03	0.00762028	700.0
2208	7.00847e+02	2.20800e+03	0.00761056	700.0
2209	7.00847e+02	2.20900e+03	0.00760123	700.0
2210	7.00841e+02	2.21000e+03	0.0075923	700.0
2211	7.00840e+02	2.21100e+03	0.00758376	700.0
2212	7.00844e+02	2.21200e+03	0.0075766	700.0
2213	7.00846e+02	2.21300e+03	0.00757268	700.0
2214	7.00844e+02	2.21400e+03	0.00757082	700.0
2215	7.00840e+02	2.21500e+03	0.00757012	700.0
2216	7.00840e+02	2.21600e+03	0.00757731	700.0
2217	7.00843e+02	2.21700e+03	0.00758202	700.0
2218	7.00840e+02	2.21800e+03	0.00759028	700.0
2219	7.00841e+02	2.21900e+03	0.00760163	700.0
2220	7.00839e+02	2.22000e+03	0.00761384	700.0
2221	7.00844e+02	2.22100e+03	0.00762229	700.0
2222	7.00833e+02	2.22200e+03	0.00762756	700.0
2223	7.00833e+02	2.22300e+03	0.00763066	700.0
2224	7.00836e+02	2.22400e+03	0.00762522	700.0
2225	7.00827e+02	2.22500e+03	0.00761831	700.0
2226	7.00837e+02	2.22600e+03	0.00760903	700.0
2227	7.00836e+02	2.22700e+03	0.0075982	700.0
2228	7.00839e+02	2.22800e+03	0.00757688	700.0
2229	7.00839e+02	2.22900e+03	0.00756224	700.0
2230	7.00834e+02	2.23000e+03	0.00754946	700.0
2231	7.00821e+02	2.23100e+03	0.0075373	700.0
2232	7.00827e+02	2.23200e+03	0.00753092	700.0
2233	7.00835e+02	2.23300e+03	0.0075278	700.0
2234	7.00834e+02	2.23400e+03	0.00752976	700.0
2235	7.00827e+02	2.23500e+03	0.00753417	700.0
2236	7.00828e+02	2.23600e+03	0.00754802	700.0
2237	7.00823e+02	2.23700e+03	0.00755737	700.0
2238	7.00828e+02	2.23800e+03	0.00756581	700.0
2239	7.00821e+02	2.23900e+03	0.00757407	700.0
2240	7.00822e+02	2.24000e+03	0.00758451	700.0
2241	7.00827e+02	2.24100e+03	0.00759425	700.0
2242	7.00827e+02	2.24200e+03	0.00760476	700.0
2243	7.00830e+02	2.24300e+03	0.00761609	700.0
2244	7.00827e+02	2.24400e+03	0.00763045	700.0
2245	7.00818e+02	2.24500e+03	0.00764612	700.0
2246	7.00818e+02	2.24600e+03	0.00766351	700.0
2247	7.00813e+02	2.24700e+03	0.00768308	700.0
2248	7.00815e+02	2.24800e+03	0.00771231	700.0
2249	7.00818e+02	2.24900e+03	0.00773733	700.0
2250	7.00809e+02	2.25000e+03	0.00775964	700.0
2251	7.00801e+02	2.25100e+03	0.00778028	700.0
2252	7.00804e+02	2.25200e+03	0.00779508	700.0
2253	7.00813e+02	2.25300e+03	0.00780261	700.0
2254	7.00813e+02	2.25400e+03	0.00780259	700.0
2255	7.00817e+02	2.25500e+03	0.00779744	700.0
2256	7.00809e+02	2.25600e+03	0.0077599	700.0
2257	7.00807e+02	2.25700e+03	0.00772526	700.0
2258	7.00811e+02	2.25800e+03	0.00768757	700.0
2259	7.00798e+02	2.25900e+03	0.00764798	700.0
2260	7.00800e+02	2.26000e+03	0.00759238	700.0
2261	7.00802e+02	2.26100e+03	0.0075485	700.0
2262	7.00806e+02	2.26200e+03	0.00750252	700.0
2263	7.00806e+02	2.26300e+03	0.00745312	700.0
2264	7.00802e+02	2.26400e+03	0.00740267	700.0
2265	7.00804e+02	2.26500e+03	0.00734971	700.0
2266	7.00806e+02	2.26600e+03	0.00730181	700.0
2267	7.00795e+02	2.26700e+03	0.00725946	700.0
2268	7.00799e+02	2.26800e+03	0.00724182	700.0
2269	7.00798e+02	2.26900e+03	0.00724744	700.0
2270	7.00807e+02	2.27000e+03	0.00727354	700.0
2271	7.00797e+02	2.27100e+03	0.00731257	700.0
2272	7.00800e+02	2.27200e+03	0.00743332	700.0
2273	7.00792e+02	2.27300e+03	0.00752527	700.0
2274	7.00792e+02	2.27400e+03	0.00761684	700.0
2275	7.00799e+02	2.27500e+03	0.00771222	700.0
2276	7.00796e+02	2.27600e+03	0.00781631	700.0
2277	7.00792e+02	2.27700e+03	0.00789663	700.0
2278	7.00793e+02	2.27800e+03	0.00796162	700.0
2279	7.00789e+02	2.27900e+03	0.00801737	700.0
2280	7.00797e+02	2.28000e+03	0.00802055	700.0
2281	7.00782e+02	2.28100e+03	0.00803092	700.0
2282	7.00786e+02	2.28200e+03	0.00803373	700.0
2283	7.00796e+02	2.28300e+03	0.00802987	700.0
2284	7.00792e+02	2.28400e+03	0.00798468	700.0
2285	7.00787e+02	2.28500e+03	0.00795785	700.0
2286	7.00788e+02	2.28600e+03	0.00793576	700.0
2287	7.00784e+02	2.28700e+03	0.00791472	700.0
2288	7.00784e+02	2.28800e+03	0.007889	700.0
2289	7.00780e+02	2.28900e+03	0.00786481	700.0
2290	7.00781e+02	2.29000e+03	0.00784022	700.0
2291	7.00780e+02	2.29100e+03	0.007815	700.0
2292	7.00780e+02	2.29200e+03	0.00779036	700.0
2293	7.00781e+02	2.29300e+03	0.00776467	700.0
2294	7.00776e+02	2.29400e+03	0.00773919	700.0
2295	7.00778e+02	2.29500e+03	0.00771415	700.0
2296	7.00778e+02	2.29600e+03	0.00769072	700.0
2297	7.00781e+02	2.29700e+03	0.00767052	700.0
2298	7.00782e+02	2.29800e+03	0.00765285	700.0
2299	7.00783e+02	2.29900e+03	0.00763678	700.0
2300	7.00792e+02	2.30000e+03	0.00763093	700.0
2301	7.00788e+02	2.30100e+03	0.00762261	700.0
2302	7.00789e+02	2.30200e+03	0.0076152	700.0
2303	7.00790e+02	2.30300e+03	0.00760883	700.0
2304	7.00786e+02	2.30400e+03	0.00760838	700.0
2305	7.00783e+02	2.30500e+03	0.00760594	700.0
2306	7.00784e+02	2.30600e+03	0.00760366	700.0
2307	7.00781e+02	2.30700e+03	0.00760178	700.0
2308	7.00781e+02	2.30800e+03	0.00760194	700.0
2309	7.00778e+02	2.30900e+03	0.00760135	700.0
2310	7.00785e+02	2.31000e+03	0.00760077	700.0
2311	7.00780e+02	2.31100e+03	0.00760031	700.0
2312	7.00779e+02	2.31200e+03	0.00760013	700.0
2313	7.00770e+02	2.31300e+03	0.00759918	700.0
2314	7.00772e+02	2.31400e+03	0.00759729	700.0
2315	7.00784e+02	2.31500e+03	0.00759471	700.0
2316	7.00779e+02	2.31600e+03	0.00758895	700.0
2317	7.00768e+02	2.31700e+03	0.00758234	700.0
2318	7.00774e+02	2.31800e+03	0.00757407	700.0
2319	7.00777e+02	2.31900e+03	0.00756455	700.0
2320	7.00776e+02	2.32000e+03	0.00754841	700.0
2321	7.00776e+02	2.32100e+03	0.00753385	700.0
2322	7.00780e+02	2.32200e+03	0.00751898	700.0
2323	7.00783e+02	2.32300e+03	0.00750373	700.0
2324	7.00782e+02	2.32400e+03	0.00748729	700.0
2325	7.00786e+02	2.32500e+03	0.00747597	700.0
2326	7.00775e+02	2.32600e+03	0.00747152	700.0
2327	7.00784e+02	2.32700e+03	0.0074718	700.0
2328	7.00779e+02	2.32800e+03	0.00748505	700.0
2329	7.00782e+02	2.32900e+03	0.00749603	700.0
2330	7.00783e+02	2.33000e+03	0.00750783	700.0
2331	7.00777e+02	2.33100e+03	0.0075204	700.0
2332	7.00787e+02	2.33200e+03	0.00754173	700.0
2333	7.00777e+02	2.33300e+03	0.00755587	700.0
2334	7.00770e+02	2.33400e+03	0.00756749	700.0
2335	7.00781e+02	2.33500e+03	0.0075781	700.0
2336	7.00779e+02	2.33600e+03	0.00758109	700.0
2337	7.00770e+02	2.33700e+03	0.00758621	700.0
2338	7.00779e+02	2.33800e+03	0.00759081	700.0
2339	7.00784e+02	2.33900e+03	0.00759474	700.0
2340	7.00777e+02	2.34000e+03	0.00759493	700.0
2341	7.00780e+02	2.34100e+03	0.0075964	700.0
2342	7.00770e+02	2.34200e+03	0.00759778	700.0
2343	7.00777e+02	2.34300e+03	0.00759892	700.0
2344	7.00776e+02	2.34400e+03	0.00759843	700.0
2345	7.00778e+02	2.34500e+03	0.00759772	700.0
2346	7.00782e+02	2.34600e+03	0.00759599	700.0
2347	7.00782e+02	2.34700e+03	0.00759343	700.0
2348	7.00783e+02	2.34800e+03	0.0075878	700.0
2349	7.00788e+02	2.34900e+03	0.00758501	700.0
2350	7.00788e+02	2.35000e+03	0.00758564	700.0
2351	7.00782e+02	2.35100e+03	0.00758788	700.0
2352	7.00785e+02	2.35200e+03	0.00758993	700.0
2353	7.00774e+02	2.35300e+03	0.0075908	700.0
2354	7.00790e+02	2.35400e+03	0.00759024	700.0
2355	7.00785e+02	2.35500e+03	0.0075886	700.0
2356	7.00782e+02	2.35600e+03	0.00758421	700.0
2357	7.00781e+02	2.35700e+03	0.00757937	700.0
2358	7.00787e+02	2.35800e+03	0.00757713	700.0
2359	7.00787e+02	2.35900e+03	0.00757748	700.0
2360	7.00783e+02	2.36000e+03	0.00757712	700.0
2361	7.00780e+02	2.36100e+03	0.00757893	700.0
2362	7.00777e+02	2.36200e+03	0.00758092	700.0
2363	7.00778e+02	2.36300e+03	0.00758258	700.0
2364	7.00778e+02	2.36400e+03	0.00758708	700.0
2365	7.00772e+02	2.36500e+03	0.00758328	700.0
2366	7.00779e+02	2.36600e+03	0.00757382	700.0
2367	7.00779e+02	2.36700e+03	0.00756221	700.0
2368	7.00779e+02	2.36800e+03	0.00754053	700.0
2369	7.00778e+02	2.36900e+03	0.00752545	700.0
2370	7.00775e+02	2.37000e+03	0.00751275	700.0
2371	7.00777e+02	2.37100e+03	0.00750121	700.0
2372	7.00778e+02	2.37200e+03	0.00749445	700.0
2373	7.00778e+02	2.37300e+03	0.00748868	700.0
2374	7.00784e+02	2.37400e+03	0.00748399	700.0
2375	7.00783e+02	2.37500e+03	0.00747984	700.0
2376	7.00785e+02	2.37600e+03	0.00747981	700.0
2377	7.00790e+02	2.37700e+03	0.00747448	700.0
2378	7.00785e+02	2.37800e+03	0.00746655	700.0
2379	7.00782e+02	2.37900e+03	0.00745725	700.0
2380	7.00781e+02	2.38000e+03	0.00743982	700.0
2381	7.00786e+02	2.38100e+03	0.00742514	700.0
2382	7.00783e+02	2.38200e+03	0.00741129	700.0
2383	7.00782e+02	2.38300e+03	0.00739787	700.0
2384	7.00777e+02	2.38400e+03	0.00738593	700.0
2385	7.00772e+02	2.38500e+03	0.00737777	700.0
2386	7.00773e+02	2.38600e+03	0.0073722	700.0
2387	7.00783e+02	2.38700e+03	0.00736817	700.0
2388	7.00785e+02	2.38800e+03	0.00737426	700.0
2389	7.00777e+02	2.38900e+03	0.00737668	700.0
2390	7.00772e+02	2.39000e+03	0.00737932	700.0
2391	7.00782e+02	2.39100e+03	0.00738269	700.0
2392	7.00772e+02	2.39200e+03	0.00738998	700.0
2393	7.00778e+02	2.39300e+03	0.00739663	700.0
2394	7.00786e+02	2.39400e+03	0.00740502	700.0
2395	7.00779e+02	2.39500e+03	0.00741631	700.0
2396	7.00772e+02	2.39600e+03	0.00743687	700.0
2397	7.00776e+02	2.39700e+03	0.00745545	700.0
2398	7.00782e+02	2.39800e+03	0.00747267	700.0
2399	7.00781e+02	2.39900e+03	0.00748897	700.0
2400	7.00781e+02	2.40000e+03	0.00750673	700.0
2401	7.00773e+02	2.40100e+03	0.00751737	700.0
2402	7.00778e+02	2.40200e+03	0.00752418	700.0
2403	7.00783e+02	2.40300e+03	0.00752898	700.0
2404	7.00788e+02	2.40400e+03	0.00751988	700.0
2405	7.00783e+02	2.40500e+03	0.00751706	700.0
2406	7.00784e+02	2.40600e+03	0.00751487	700.0
2407	7.00775e+02	2.40700e+03	0.0075124	700.0
2408	7.00779e+02	2.40800e+03	0.00750918	700.0
2409	7.00776e+02	2.40900e+03	0.00750683	700.0
2410	7.00782e+02	2.41000e+03	0.00750478	700.0
2411	7.00779e+02	2.41100e+03	0.00750279	700.0
2412	7.00777e+02	2.41200e+03	0.00750038	700.0
2413	7.00782e+02	2.41300e+03	0.00749591	700.0
2414	7.00783e+02	2.41400e+03	0.00749006	700.0
2415	7.00772e+02	2.41500e+03	0.00748465	700.0
2416	7.00773e+02	2.41600e+03	0.0074758	700.0
2417	7.00774e+02	2.41700e+03	0.00746602	700.0
2418	7.00788e+02	2.41800e+03	0.00745465	700.0
2419	7.00774e+02	2.41900e+03	0.00744252	700.0
2420	7.00771e+02	2.42000e+03	0.00742838	700.0
2421	7.00771e+02	2.42100e+03	0.0074155	700.0
2422	7.00781e+02	2.42200e+03	0.00740246	700.0
2423	7.00781e+02	2.42300e+03	0.00738902	700.0
2424	7.00782e+02	2.42400e+03	0.00737607	700.0
2425	7.00776e+02	2.42500e+03	0.00736336	700.0
2426	7.00781e+02	2.42600e+03	0.00735097	700.0
2427	7.00783e+02	2.42700e+03	0.00733894	700.0
2428	7.00778e+02	2.42800e+03	0.0073279	700.0
2429	7.00784e+02	2.42900e+03	0.00731709	700.0
2430	7.00779e+02	2.43000e+03	0.00730724	700.0
2431	7.00776e+02	2.43100e+03	0.00729817	700.0
2432	7.00774e+02	2.43200e+03	0.00729353	700.0
2433	7.00779e+02	2.43300e+03	0.00728966	700.0
2434	7.00774e+02	2.43400e+03	0.00728712	700.0
2435	7.00777e+02	2.43500e+03	0.00728551	700.0
2436	7.00776e+02	2.43600e+03	0.00728981	700.0
2437	7.00774e+02	2.43700e+03	0.00729128	700.0
2438	7.00767e+02	2.43800e+03	0.00729208	700.0
2439	7.00765e+02	2.43900e+03	0.00729262	700.0
2440	7.00775e+02	2.44000e+03	0.00729039	700.0
2441	7.00783e+02	2.44100e+03	0.00728617	700.0
2442	7.00779e+02	2.44200e+03	0.00727993	700.0
2443	7.00767e+02	2.44300e+03	0.00727247	700.0
2444	7.00774e+02	2.44400e+03	0.00725861	700.0
2445	7.00779e+02	2.44500e+03	0.00724834	700.0
2446	7.00776e+02	2.44600e+03	0.0072398	700.0
2447	7.00772e+02	2.44700e+03	0.00723225	700.0
2448	7.00772e+02	2.44800e+03	0.00723046	700.0
2449	7.00770e+02	2.44900e+03	0.00723112	700.0
2450	7.00783e+02	2.45000e+03	0.00723414	700.0
2451	7.00770e+02	2.45100e+03	0.00723863	700.0
2452	7.00774e+02	2.45200e+03	0.00725205	700.0
2453	7.00772e+02	2.45300e+03	0.00725949	700.0
2454	7.00773e+02	2.45400e+03	0.00726674	700.0
2455	7.00782e+02	2.45500e+03	0.00727549	700.0
2456	7.00781e+02	2.45600e+03	0.00728148	700.0
2457	7.00780e+02	2.45700e+03	0.00728584	700.0
2458	7.00779e+02	2.45800e+03	0.00728754	700.0
2459	7.00782e+02	2.45900e+03	0.00728736	700.0
2460	7.00773e+02	2.46000e+03	0.0072806	700.0
2461	7.00772e+02	2.46100e+03	0.00727293	700.0
2462	7.00784e+02	2.46200e+03	0.00726303	700.0
2463	7.00778e+02	2.46300e+03	0.00725157	700.0
2464	7.00785e+02	2.46400e+03	0.00723104	700.0
2465	7.00775e+02	2.46500e+03	0.00721487	700.0
2466	7.00784e+02	2.46600e+03	0.00719977	700.0
2467	7.00781e+02	2.46700e+03	0.00718511	700.0
2468	7.00791e+02	2.46800e+03	0.00717402	700.0
2469	7.00780e+02	2.46900e+03	0.00716588	700.0
2470	7.00774e+02	2.47000e+03	0.00716117	700.0
2471	7.00781e+02	2.47100e+03	0.00715882	700.0
2472	7.00789e+02	2.47200e+03	0.00716915	700.0
2473	7.00778e+02	2.47300e+03	0.0071765	700.0
2474	7.00777e+02	2.47400e+03	0.00718413	700.0
2475	7.00790e+02	2.47500e+03	0.00719225	700.0
2476	7.00790e+02	2.47600e+03	0.007204	700.0
2477	7.00787e+02	2.47700e+03	0.00721061	700.0
2478	7.00783e+02	2.47800e+03	0.007215	700.0
2479	7.00775e+02	2.47900e+03	0.00721836	700.0
2480	7.00785e+02	2.48000e+03	0.00721433	700.0
2481	7.00778e+02	2.48100e+03	0.00721313	700.0
2482	7.00777e+02	2.48200e+03	0.007212	700.0
2483	7.00786e+02	2.48300e+03	0.00721059	700.0
2484	7.00785e+02	2.48400e+03	0.00720781	700.0
2485	7.00783e+02	2.48500e+03	0.00720601	700.0
2486	7.00778e+02	2.48600e+03	0.00720452	700.0
2487	7.00783e+02	2.48700e+03	0.00720314	700.0
2488	7.00782e+02	2.48800e+03	0.00720259	700.0
2489	7.00783e+02	2.48900e+03	0.00720186	700.0
2490	7.00780e+02	2.49000e+03	0.00720122	700.0
2491	7.00781e+02	2.49100e+03	0.00720067	700.0
2492	7.00781e+02	2.49200e+03	0.00720064	700.0
2493	7.00781e+02	2.49300e+03	0.00720035	700.0
2494	7.00792e+02	2.49400e+03	0.00719978	700.0
2495	7.00774e+02	2.49500e+03	0.00719892	700.0
2496	7.00772e+02	2.49600e+03	0.00719628	700.0
2497	7.00786e+02	2.49700e+03	0.00719271	700.0
2498	7.00785e+02	2.49800e+03	0.00718819	700.0
2499	7.00786e+02	2.49900e+03	0.00718314	700.0
2500	7.00777e+02	2.50000e+03	0.00717504	700.0
2501	7.00784e+02	2.50100e+03	0.00716913	700.0
2502	7.00788e+02	2.50200e+03	0.00716439	700.0
2503	7.00782e+02	2.50300e+03	0.00716032	700.0
2504	7.00782e+02	2.50400e+03	0.00716049	700.0
2505	7.00787e+02	2.50500e+03	0.0071637	700.0
2506	7.00789e+02	2.50600e+03	0.00717051	700.0
2507	7.00788e+02	2.50700e+03	0.00717862	700.0
2508	7.00785e+02	2.50800e+03	0.00718999	700.0
2509	7.00786e+02	2.50900e+03	0.00719503	700.0
2510	7.00789e+02	2.51000e+03	0.00719713	700.0
2511	7.00785e+02	2.51100e+03	0.00719782	700.0
2512	7.00787e+02	2.51200e+03	0.00719061	700.0
2513	7.00793e+02	2.51300e+03	0.00718672	700.0
2514	7.00791e+02	2.51400e+03	0.00718341	700.0
2515	7.00791e+02	2.51500e+03	0.00718022	700.0
2516	7.00794e+02	2.51600e+03	0.00717781	700.0
2517	7.00782e+02	2.51700e+03	0.00717753	700.0
2518	7.00788e+02	2.51800e+03	0.00717915	700.0
2519	7.00797e+02	2.51900e+03	0.00718215	700.0
2520	7.00787e+02	2.52000e+03	0.00719298	700.0
2521	7.00783e+02	2.52100e+03	0.0072031	700.0
2522	7.00785e+02	2.52200e+03	0.00721641	700.0
2523	7.00785e+02	2.52300e+03	0.00723237	700.0
2524	7.00795e+02	2.52400e+03	0.00725277	700.0
2525	7.00779e+02	2.52500e+03	0.00726795	700.0
2526	7.00785e+02	2.52600e+03	0.00728062	700.0
2527	7.00788e+02	2.52700e+03	0.00729206	700.0
2528	7.00780e+02	2.52800e+03	0.00729702	700.0
2529	7.00791e+02	2.52900e+03	0.00730024	700.0
2530	7.00795e+02	2.53000e+03	0.00729846	700.0
2531	7.00794e+02	2.53100e+03	0.00729229	700.0
2532	7.00797e+02	2.53200e+03	0.00726274	700.0
2533	7.00787e+02	2.53300e+03	0.00723126	700.0
2534	7.00785e+02	2.53400e+03	0.00719467	700.0
2535	7.00792e+02	2.53500e+03	0.00715509	700.0
2536	7.00791e+02	2.53600e+03	0.0070972	700.0
2537	7.00790e+02	2.53700e+03	0.00706006	700.0
2538	7.00791e+02	2.53800e+03	0.00703655	700.0
2539	7.00793e+02	2.53900e+03	0.00702153	700.0
2540	7.00791e+02	2.54000e+03	0.00705443	700.0
2541	7.00791e+02	2.54100e+03	0.00708895	700.0
2542	7.00796e+02	2.54200e+03	0.00713165	700.0
2543	7.00786e+02	2.54300e+03	0.00717986	700.0
2544	7.00791e+02	2.54400e+03	0.00726486	700.0
2545	7.00797e+02	2.54500e+03	0.00731579	700.0
2546	7.00788e+02	2.54600e+03	0.00735141	700.0
2547	7.00788e+02	2.54700e+03	0.0073788	700.0
2548	7.00789e+02	2.54800e+03	0.00735305	700.0
2549	7.00792e+02	2.54900e+03	0.0073301	700.0
2550	7.00785e+02	2.55000e+03	0.00729782	700.0
2551	7.00796e+02	2.55100e+03	0.00725857	700.0
2552	7.00786e+02	2.55200e+03	0.00717858	700.0
2553	7.00787e+02	2.55300e+03	0.00712697	700.0
2554	7.00786e+02	2.55400e+03	0.00708792	700.0
2555	7.00790e+02	2.55500e+03	0.00705558	700.0
2556	7.00794e+02	2.55600e+03	0.00706231	700.0
2557	7.00789e+02	2.55700e+03	0.00707372	700.0
2558	7.00775e+02	2.55800e+03	0.00709474	700.0
2559	7.00788e+02	2.55900e+03	0.00712225	700.0
2560	7.00787e+02	2.56000e+03	0.0071924	700.0
2561	7.00797e+02	2.56100e+03	0.00723537	700.0
2562	7.00783e+02	2.56200e+03	0.0072701	700.0
2563	7.00785e+02	2.56300e+03	0.00730161	700.0
2564	7.00793e+02	2.56400e+03	0.00731067	700.0
2565	7.00796e+02	2.56500e+03	0.00731922	700.0
2566	7.00792e+02	2.56600e+03	0.0073219	700.0
2567	7.00787e+02	2.56700e+03	0.00732009	700.0
2568	7.00791e+02	2.56800e+03	0.00729161	700.0
2569	7.00797e+02	2.56900e+03	0.00727258	700.0
2570	7.00791e+02	2.57000e+03	0.00725364	700.0
2571	7.00792e+02	2.57100e+03	0.00723364	700.0
2572	7.00788e+02	2.57200e+03	0.00720723	700.0
2573	7.00793e+02	2.57300e+03	0.00718494	700.0
2574	7.00797e+02	2.57400e+03	0.0071637	700.0
2575	7.00792e+02	2.57500e+03	0.00714274	700.0
2576	7.00800e+02	2.57600e+03	0.00712467	700.0
2577	7.00792e+02	2.57700e+03	0.00710615	700.0
2578	7.00793e+02	2.57800e+03	0.00708842	700.0
2579	7.00791e+02	2.57900e+03	0.00707142	700.0
2580	7.00793e+02	2.58000e+03	0.00705375	700.0
2581	7.00798e+02	2.58100e+03	0.00703283	700.0
2582	7.00802e+02	2.58200e+03	0.0070113	700.0
2583	7.00795e+02	2.58300e+03	0.00699044	700.0
2584	7.00794e+02	2.58400e+03	0.00697073	700.0
2585	7.00795e+02	2.58500e+03	0.00695577	700.0
2586	7.00797e+02	2.58600e+03	0.00694463	700.0
2587	7.00799e+02	2.58700e+03	0.00693591	700.0
2588	7.00797e+02	2.58800e+03	0.00694077	700.0
2589	7.00794e+02	2.58900e+03	0.00694236	700.0
2590	7.00788e+02	2.59000e+03	0.0069443	700.0
2591	7.00797e+02	2.59100e+03	0.00694677	700.0
2592	7.00799e+02	2.59200e+03	0.00695365	700.0
2593	7.00797e+02	2.59300e+03	0.00695562	700.0
2594	7.00805e+02	2.59400e+03	0.00695556	700.0
2595	7.00805e+02	2.59500e+03	0.00695455	700.0
2596	7.00799e+02	2.59600e+03	0.00694687	700.0
2597	7.00795e+02	2.59700e+03	0.0069412	700.0
2598	7.00803e+02	2.59800e+03	0.00693501	700.0
2599	7.00799e+02	2.59900e+03	0.0069281	700.0
2600	7.00795e+02	2.60000e+03	0.00691799	700.0
2601	7.00790e+02	2.60100e+03	0.00691096	700.0
2602	7.00794e+02	2.60200e+03	0.00690867	700.0
2603	7.00795e+02	2.60300e+03	0.00690959	700.0
2604	7.00799e+02	2.60400e+03	0.00691501	700.0
2605	7.00801e+02	2.60500e+03	0.00692015	700.0
2606	7.00793e+02	2.60600e+03	0.00692598	700.0
2607	7.00808e+02	2.60700e+03	0.00693228	700.0
2608	7.00794e+02	2.60800e+03	0.00694627	700.0
2609	7.00803e+02	2.60900e+03	0.00695761	700.0
2610	7.00800e+02	2.61000e+03	0.00696961	700.0
2611	7.00797e+02	2.61100e+03	0.00698261	700.0
2612	7.00799e+02	2.61200e+03	0.00699902	700.0
2613	7.00803e+02	2.61300e+03	0.00701476	700.0
2614	7.00803e+02	2.61400e+03	0.00702929	700.0
2615	7.00812e+02	2.61500e+03	0.00704262	700.0
2616	7.00803e+02	2.61600e+03	0.00705049	700.0
2617	7.00803e+02	2.61700e+03	0.00705254	700.0
2618	7.00807e+02	2.61800e+03	0.00704917	700.0
2619	7.00805e+02	2.61900e+03	0.00704229	700.0
2620	7.00809e+02	2.62000e+03	0.00701328	700.0
2621	7.00805e+02	2.62100e+03	0.00698967	700.0
2622	7.00803e+02	2.62200e+03	0.00696477	700.0
2623	7.00804e+02	2.62300e+03	0.00693818	700.0
2624	7.00797e+02	2.62400e+03	0.00690274	700.0
2625	7.00799e+02	2.62500e+03	0.00687435	700.0
2626	7.00799e+02	2.62600e+03	0.00684919	700.0
2627	7.00805e+02	2.62700e+03	0.0068259	700.0
2628	7.00810e+02	2.62800e+03	0.00681406	700.0
2629	7.00805e+02	2.62900e+03	0.00680387	700.0
2630	7.00809e+02	2.63000e+03	0.00679835	700.0
2631	7.00802e+02	2.63100e+03	0.00679635	700.0
2632	7.00815e+02	2.63200e+03	0.00681605	700.0
2633	7.00812e+02	2.63300e+03	0.00683627	700.0
2634	7.00810e+02	2.63400e+03	0.00686199	700.0
2635	7.00805e+02	2.63500e+03	0.00689025	700.0
2636	7.00810e+02	2.63600e+03	0.00693333	700.0
2637	7.00805e+02	2.63700e+03	0.00696526	700.0
2638	7.00821e+02	2.63800e+03	0.0069916	700.0
2639	7.00818e+02	2.63900e+03	0.00701368	700.0
2640	7.00813e+02	2.64000e+03	0.00701445	700.0
2641	7.00810e+02	2.64100e+03	0.00701253	700.0
2642	7.00815e+02	2.64200e+03	0.00700579	700.0
2643	7.00818e+02	2.64300e+03	0.0069957	700.0
2644	7.00821e+02	2.64400e+03	0.00695809	700.0
2645	7.00816e+02	2.64500e+03	0.00693371	700.0
2646	7.00819e+02	2.64600e+03	0.00691177	700.0
2647	7.00814e+02	2.64700e+03	0.00689008	700.0
2648	7.00823e+02	2.64800e+03	0.00687157	700.0
2649	7.00818e+02	2.64900e+03	0.00685502	700.0
2650	7.00812e+02	2.65000e+03	0.00684063	700.0
2651	7.00822e+02	2.65100e+03	0.00682764	700.0
2652	7.00818e+02	2.65200e+03	0.00682634	700.0
2653	7.00815e+02	2.65300e+03	0.00682754	700.0
2654	7.00821e+02	2.65400e+03	0.00683367	700.0
2655	7.00820e+02	2.65500e+03	0.00684209	700.0
2656	7.00818e+02	2.65600e+03	0.00686381	700.0
2657	7.00810e+02	2.65700e+03	0.00688014	700.0
2658	7.00805e+02	2.65800e+03	0.00689573	700.0
2659	7.00821e+02	2.65900e+03	0.00691133	700.0
2660	7.00818e+02	2.66000e+03	0.00692854	700.0
2661	7.00818e+02	2.66100e+03	0.00694285	700.0
2662	7.00815e+02	2.66200e+03	0.0069555	700.0
2663	7.00819e+02	2.66300e+03	0.00696723	700.0
2664	7.00823e+02	2.66400e+03	0.00697283	700.0
2665	7.00817e+02	2.66500e+03	0.00697962	700.0
2666	7.00816e+02	2.66600e+03	0.00698565	700.0
2667	7.00820e+02	2.66700e+03	0.00699092	700.0
2668	7.00827e+02	2.66800e+03	0.00699186	700.0
2669	7.00826e+02	2.66900e+03	0.00699288	700.0
2670	7.00818e+02	2.67000e+03	0.00698952	700.0
2671	7.00821e+02	2.67100e+03	0.00698242	700.0
2672	7.00824e+02	2.67200e+03	0.0069687	700.0
2673	7.00817e+02	2.67300e+03	0.00695637	700.0
2674	7.00819e+02	2.67400e+03	0.00694355	700.0
2675	7.00814e+02	2.67500e+03	0.00693025	700.0
2676	7.00820e+02	2.67600e+03	0.00691162	700.0
2677	7.00820e+02	2.67700e+03	0.00689777	700.0
2678	7.00823e+02	2.67800e+03	0.00688623	700.0
2679	7.00821e+02	2.67900e+03	0.00687593	700.0
2680	7.00824e+02	2.68000e+03	0.00687298	700.0
2681	7.00822e+02	2.68100e+03	0.00686904	700.0
2682	7.00825e+02	2.68200e+03	0.00686558	700.0
2683	7.00825e+02	2.68300e+03	0.00686253	700.0
2684	7.00815e+02	2.68400e+03	0.00686338	700.0
2685	7.00819e+02	2.68500e+03	0.00686094	700.0
2686	7.00826e+02	2.68600e+03	0.00685781	700.0
2687	7.00818e+02	2.68700e+03	0.00685471	700.0
2688	7.00824e+02	2.68800e+03	0.00685006	700.0
2689	7.00819e+02	2.68900e+03	0.00684705	700.0
2690	7.00824e+02	2.69000e+03	0.00684412	700.0
2691	7.00826e+02	2.69100e+03	0.0068409	700.0
2692	7.00817e+02	2.69200e+03	0.00683759	700.0
2693	7.00821e+02	2.69300e+03	0.00683236	700.0
2694	7.00828e+02	2.69400e+03	0.0068271	700.0
2695	7.00826e+02	2.69500e+03	0.00682354	700.0
2696	7.00822e+02	2.69600e+03	0.006824	700.0
2697	7.00818e+02	2.69700e+03	0.00682769	700.0
2698	7.00823e+02	2.69800e+03	0.00683347	700.0
2699	7.00827e+02	2.69900e+03	0.00684055	700.0
2700	7.00827e+02	2.70000e+03	0.00686137	700.0
2701	7.00831e+02	2.70100e+03	0.00687694	700.0
2702	7.00824e+02	2.70200e+03	0.00689144	700.0
2703	7.00836e+02	2.70300e+03	0.00690561	700.0
2704	7.00833e+02	2.70400e+03	0.0069179	700.0
2705	7.00825e+02	2.70500e+03	0.0069262	700.0
2706	7.00826e+02	2.70600e+03	0.0069309	700.0
2707	7.00832e+02	2.70700e+03	0.00693324	700.0
2708	7.00831e+02	2.70800e+03	0.00692292	700.0
2709	7.00831e+02	2.70900e+03	0.00691365	700.0
2710	7.00819e+02	2.71000e+03	0.00689879	700.0
2711	7.00828e+02	2.71100e+03	0.00687862	700.0
2712	7.00834e+02	2.71200e+03	0.00685624	700.0
2713	7.00820e+02	2.71300e+03	0.00683318	700.0
2714	7.00829e+02	2.71400e+03	0.00681174	700.0
2715	7.00824e+02	2.71500e+03	0.00679286	700.0
2716	7.00826e+02	2.71600e+03	0.00677664	700.0
2717	7.00835e+02	2.71700e+03	0.00676273	700.0
2718	7.00831e+02	2.71800e+03	0.00675236	700.0
2719	7.00833e+02	2.71900e+03	0.00674814	700.0
2720	7.00830e+02	2.72000e+03	0.0067483	700.0
