Index	Ts	t	Weight	Tr
[#]	[°C]	[s]	[mg]	[°C]
680	1.30063e+02	6.80000e+02	2.98502	130.0
681	1.30564e+02	6.81000e+02	2.98497	130.5
682	1.31080e+02	6.82000e+02	2.98492	131.0
683	1.31616e+02	6.83000e+02	2.98487	131.5
684	1.32143e+02	6.84000e+02	2.9848	132.0
685	1.32639e+02	6.85000e+02	2.98475	132.5
686	1.33139e+02	6.86000e+02	2.9847	133.0
687	1.33636e+02	6.87000e+02	2.98466	133.5
688	1.34158e+02	6.88000e+02	2.98463	134.0
689	1.34659e+02	6.89000e+02	2.98461	134.5
690	1.35165e+02	6.90000e+02	2.98459	135.0
691	1.35682e+02	6.91000e+02	2.98457	135.5
692	1.36209e+02	6.92000e+02	2.98457	136.0
693	1.36712e+02	6.93000e+02	2.98456	136.5
694	1.37222e+02	6.94000e+02	2.98454	137.0
695	1.37748e+02	6.95000e+02	2.98453	137.5
696	1.38256e+02	6.96000e+02	2.98451	138.0
697	1.38752e+02	6.97000e+02	2.98449	138.5
698	1.39263e+02	6.98000e+02	2.98448	139.0
699	1.39778e+02	6.99000e+02	2.98447	139.5
700	1.40270e+02	7.00000e+02	2.98446	140.0
701	1.40769e+02	7.01000e+02	2.98445	140.5
702	1.41273e+02	7.02000e+02	2.98444	141.0
703	1.41774e+02	7.03000e+02	2.98443	141.5
704	1.42284e+02	7.04000e+02	2.98443	142.0
705	1.42776e+02	7.05000e+02	2.98442	142.5
706	1.43291e+02	7.06000e+02	2.98442	143.0
707	1.43798e+02	7.07000e+02	2.98441	143.5
708	1.44305e+02	7.08000e+02	2.98439	144.0
709	1.44800e+02	7.09000e+02	2.98437	144.5
710	1.45320e+02	7.10000e+02	2.98435	145.0
711	1.45837e+02	7.11000e+02	2.98432	145.5
712	1.46334e+02	7.12000e+02	2.98428	146.0
713	1.46846e+02	7.13000e+02	2.98424	146.5
714	1.47357e+02	7.14000e+02	2.9842	147.0
715	1.47853e+02	7.15000e+02	2.98416	147.5
716	1.48360e+02	7.16000e+02	2.98412	148.0
717	1.48864e+02	7.17000e+02	2.98408	148.5
718	1.49382e+02	7.18000e+02	2.98405	149.0
719	1.49895e+02	7.19000e+02	2.98402	149.5
720	1.50378e+02	7.20000e+02	2.98399	150.0
721	1.50907e+02	7.21000e+02	2.98397	150.5
722	1.51414e+02	7.22000e+02	2.98394	151.0
723	1.51918e+02	7.23000e+02	2.98391	151.5
724	1.52419e+02	7.24000e+02	2.98388	152.0
725	1.52933e+02	7.25000e+02	2.98385	152.5
726	1.53441e+02	7.26000e+02	2.98381	153.0
727	1.53950e+02	7.27000e+02	2.98377	153.5
728	1.54455e+02	7.28000e+02	2.98373	154.0
729	1.54958e+02	7.29000e+02	2.98369	154.5
730	1.55464e+02	7.30000e+02	2.98364	155.0
731	1.55988e+02	7.31000e+02	2.9836	155.5
732	1.56486e+02	7.32000e+02	2.98355	156.0
733	1.56985e+02	7.33000e+02	2.9835	156.5
734	1.57506e+02	7.34000e+02	2.98346	157.0
735	1.58000e+02	7.35000e+02	2.98342	157.5
736	1.58524e+02	7.36000e+02	2.98338	158.0
737	1.59035e+02	7.37000e+02	2.98335	158.5
738	1.59546e+02	7.38000e+02	2.98332	159.0
739	1.60048e+02	7.39000e+02	2.9833	159.5
740	1.60572e+02	7.40000e+02	2.98329	160.0
741	1.61070e+02	7.41000e+02	2.98327	160.5
742	1.61570e+02	7.42000e+02	2.98324	161.0
743	1.62090e+02	7.43000e+02	2.98322	161.5
744	1.62589e+02	7.44000e+02	2.98319	162.0
745	1.63103e+02	7.45000e+02	2.98315	162.5
746	1.63614e+02	7.46000e+02	2.98311	163.0
747	1.64113e+02	7.47000e+02	2.98306	163.5
748	1.64634e+02	7.48000e+02	2.98299	164.0
749	1.65144e+02	7.49000e+02	2.98294	164.5
750	1.65639e+02	7.50000e+02	2.98288	165.0
751	1.66158e+02	7.51000e+02	2.98282	165.5
752	1.66669e+02	7.52000e+02	2.98276	166.0
753	1.67181e+02	7.53000e+02	2.9827	166.5
754	1.67689e+02	7.54000e+02	2.98264	167.0
755	1.68206e+02	7.55000e+02	2.98259	167.5
756	1.68708e+02	7.56000e+02	2.98254	168.0
757	1.69215e+02	7.57000e+02	2.98248	168.5
758	1.69726e+02	7.58000e+02	2.98242	169.0
759	1.70229e+02	7.59000e+02	2.98237	169.5
760	1.70745e+02	7.60000e+02	2.98231	170.0
761	1.71251e+02	7.61000e+02	2.98225	170.5
762	1.71768e+02	7.62000e+02	2.9822	171.0
763	1.72265e+02	7.63000e+02	2.98215	171.5
764	1.72784e+02	7.64000e+02	2.98211	172.0
765	1.73297e+02	7.65000e+02	2.98207	172.5
766	1.73811e+02	7.66000e+02	2.98202	173.0
767	1.74314e+02	7.67000e+02	2.98198	173.5
768	1.74832e+02	7.68000e+02	2.98194	174.0
769	1.75340e+02	7.69000e+02	2.9819	174.5
770	1.75848e+02	7.70000e+02	2.98185	175.0
771	1.76361e+02	7.71000e+02	2.9818	175.5
772	1.76864e+02	7.72000e+02	2.98175	176.0
773	1.77381e+02	7.73000e+02	2.98169	176.5
774	1.77888e+02	7.74000e+02	2.98164	177.0
775	1.78395e+02	7.75000e+02	2.98158	177.5
776	1.78900e+02	7.76000e+02	2.98152	178.0
777	1.79414e+02	7.77000e+02	2.98147	178.5
778	1.79928e+02	7.78000e+02	2.98142	179.0
779	1.80445e+02	7.79000e+02	2.98136	179.5
780	1.80954e+02	7.80000e+02	2.98131	180.0
781	1.81464e+02	7.81000e+02	2.98126	180.5
782	1.81981e+02	7.82000e+02	2.9812	181.0
783	1.82497e+02	7.83000e+02	2.98114	181.5
784	1.83009e+02	7.84000e+02	2.98108	182.0
785	1.83513e+02	7.85000e+02	2.98102	182.5
786	1.84041e+02	7.86000e+02	2.98096	183.0
787	1.84545e+02	7.87000e+02	2.9809	183.5
788	1.85039e+02	7.88000e+02	2.98084	184.0
789	1.85561e+02	7.89000e+02	2.98077	184.5
790	1.86070e+02	7.90000e+02	2.98069	185.0
791	1.86584e+02	7.91000e+02	2.98061	185.5
792	1.87094e+02	7.92000e+02	2.9805	186.0
793	1.87601e+02	7.93000e+02	2.9804	186.5
794	1.88113e+02	7.94000e+02	2.98029	187.0
795	1.88631e+02	7.95000e+02	2.98018	187.5
796	1.89126e+02	7.96000e+02	2.98005	188.0
797	1.89641e+02	7.97000e+02	2.97993	188.5
798	1.90154e+02	7.98000e+02	2.97982	189.0
799	1.90666e+02	7.99000e+02	2.9797	189.5
800	1.91177e+02	8.00000e+02	2.97959	190.0
801	1.91672e+02	8.01000e+02	2.97947	190.5
802	1.92196e+02	8.02000e+02	2.97934	191.0
803	1.92716e+02	8.03000e+02	2.9792	191.5
804	1.93226e+02	8.04000e+02	2.97904	192.0
805	1.93736e+02	8.05000e+02	2.97888	192.5
806	1.94245e+02	8.06000e+02	2.97872	193.0
807	1.94753e+02	8.07000e+02	2.97855	193.5
808	1.95264e+02	8.08000e+02	2.97835	194.0
809	1.95783e+02	8.09000e+02	2.97815	194.5
810	1.96287e+02	8.10000e+02	2.97795	195.0
811	1.96800e+02	8.11000e+02	2.97774	195.5
812	1.97285e+02	8.12000e+02	2.97752	196.0
813	1.97797e+02	8.13000e+02	2.97731	196.5
814	1.98295e+02	8.14000e+02	2.97709	197.0
815	1.98801e+02	8.15000e+02	2.97688	197.5
816	1.99297e+02	8.16000e+02	2.97666	198.0
817	1.99799e+02	8.17000e+02	2.97644	198.5
818	2.00314e+02	8.18000e+02	2.97622	199.0
819	2.00807e+02	8.19000e+02	2.976	199.5
820	2.01312e+02	8.20000e+02	2.97576	200.0
821	2.01810e+02	8.21000e+02	2.97552	200.5
822	2.02321e+02	8.22000e+02	2.97526	201.0
823	2.02827e+02	8.23000e+02	2.97501	201.5
824	2.03335e+02	8.24000e+02	2.97471	202.0
825	2.03844e+02	8.25000e+02	2.97443	202.5
826	2.04350e+02	8.26000e+02	2.97414	203.0
827	2.04848e+02	8.27000e+02	2.97386	203.5
828	2.05356e+02	8.28000e+02	2.97355	204.0
829	2.05868e+02	8.29000e+02	2.97325	204.5
830	2.06369e+02	8.30000e+02	2.97295	205.0
831	2.06870e+02	8.31000e+02	2.97266	205.5
832	2.07369e+02	8.32000e+02	2.97236	206.0
833	2.07868e+02	8.33000e+02	2.97205	206.5
834	2.08378e+02	8.34000e+02	2.97174	207.0
835	2.08888e+02	8.35000e+02	2.97143	207.5
836	2.09405e+02	8.36000e+02	2.9711	208.0
837	2.09913e+02	8.37000e+02	2.97078	208.5
838	2.10432e+02	8.38000e+02	2.97045	209.0
839	2.10943e+02	8.39000e+02	2.97012	209.5
840	2.11465e+02	8.40000e+02	2.96979	210.0
841	2.11977e+02	8.41000e+02	2.96945	210.5
842	2.12478e+02	8.42000e+02	2.96912	211.0
843	2.13010e+02	8.43000e+02	2.96878	211.5
844	2.13559e+02	8.44000e+02	2.96844	212.0
845	2.14080e+02	8.45000e+02	2.9681	212.5
846	2.14597e+02	8.46000e+02	2.96775	213.0
847	2.15148e+02	8.47000e+02	2.96739	213.5
848	2.15662e+02	8.48000e+02	2.96701	214.0
849	2.16249e+02	8.49000e+02	2.96663	214.5
850	2.16869e+02	8.50000e+02	2.96624	215.0
851	2.17465e+02	8.51000e+02	2.96586	215.5
852	2.18019e+02	8.52000e+02	2.96545	216.0
853	2.18562e+02	8.53000e+02	2.96506	216.5
854	2.19105e+02	8.54000e+02	2.96469	217.0
855	2.19644e+02	8.55000e+02	2.96431	217.5
856	2.20181e+02	8.56000e+02	2.96396	218.0
857	2.20725e+02	8.57000e+02	2.96361	218.5
858	2.21257e+02	8.58000e+02	2.96326	219.0
859	2.21785e+02	8.59000e+02	2.96292	219.5
860	2.22320e+02	8.60000e+02	2.96259	220.0
861	2.22828e+02	8.61000e+02	2.96224	220.5
862	2.23362e+02	8.62000e+02	2.96189	221.0
863	2.23892e+02	8.63000e+02	2.96154	221.5
864	2.24408e+02	8.64000e+02	2.96117	222.0
865	2.24929e+02	8.65000e+02	2.96081	222.5
866	2.25444e+02	8.66000e+02	2.96044	223.0
867	2.26004e+02	8.67000e+02	2.96008	223.5
868	2.26519e+02	8.68000e+02	2.95971	224.0
869	2.27028e+02	8.69000e+02	2.95934	224.5
870	2.27532e+02	8.70000e+02	2.95898	225.0
871	2.28037e+02	8.71000e+02	2.95861	225.5
872	2.28536e+02	8.72000e+02	2.95824	226.0
873	2.29041e+02	8.73000e+02	2.95787	226.5
874	2.29525e+02	8.74000e+02	2.95749	227.0
875	2.30028e+02	8.75000e+02	2.95712	227.5
876	2.30535e+02	8.76000e+02	2.95673	228.0
877	2.31046e+02	8.77000e+02	2.95635	228.5
878	2.31556e+02	8.78000e+02	2.95597	229.0
879	2.32071e+02	8.79000e+02	2.95559	229.5
880	2.32580e+02	8.80000e+02	2.95521	230.0
881	2.33093e+02	8.81000e+02	2.95483	230.5
882	2.33609e+02	8.82000e+02	2.95444	231.0
883	2.34122e+02	8.83000e+02	2.95404	231.5
884	2.34646e+02	8.84000e+02	2.95363	232.0
885	2.35154e+02	8.85000e+02	2.95322	232.5
886	2.35666e+02	8.86000e+02	2.95281	233.0
887	2.36183e+02	8.87000e+02	2.95239	233.5
888	2.36689e+02	8.88000e+02	2.95197	234.0
889	2.37182e+02	8.89000e+02	2.95156	234.5
890	2.37700e+02	8.90000e+02	2.95115	235.0
891	2.38206e+02	8.91000e+02	2.95074	235.5
892	2.38717e+02	8.92000e+02	2.95034	236.0
893	2.39233e+02	8.93000e+02	2.94994	236.5
894	2.39751e+02	8.94000e+02	2.94954	237.0
895	2.40261e+02	8.95000e+02	2.94914	237.5
896	2.40776e+02	8.96000e+02	2.94875	238.0
897	2.41294e+02	8.97000e+02	2.94835	238.5
898	2.41800e+02	8.98000e+02	2.94794	239.0
899	2.42309e+02	8.99000e+02	2.94754	239.5
900	2.42827e+02	9.00000e+02	2.94711	240.0
901	2.43358e+02	9.01000e+02	2.94669	240.5
902	2.43860e+02	9.02000e+02	2.94625	241.0
903	2.44389e+02	9.03000e+02	2.94581	241.5
904	2.44914e+02	9.04000e+02	2.94535	242.0
905	2.45416e+02	9.05000e+02	2.9449	242.5
906	2.45924e+02	9.06000e+02	2.94445	243.0
907	2.46456e+02	9.07000e+02	2.944	243.5
908	2.46970e+02	9.08000e+02	2.94356	244.0
909	2.47493e+02	9.09000e+02	2.94311	244.5
910	2.48018e+02	9.10000e+02	2.94266	245.0
911	2.48561e+02	9.11000e+02	2.94221	245.5
912	2.49081e+02	9.12000e+02	2.94176	246.0
913	2.49607e+02	9.13000e+02	2.94132	246.5
914	2.50131e+02	9.14000e+02	2.94088	247.0
915	2.50643e+02	9.15000e+02	2.94043	247.5
916	2.51156e+02	9.16000e+02	2.93999	248.0
917	2.51670e+02	9.17000e+02	2.93954	248.5
918	2.52188e+02	9.18000e+02	2.93909	249.0
919	2.52713e+02	9.19000e+02	2.93863	249.5
920	2.53225e+02	9.20000e+02	2.93816	250.0
921	2.53742e+02	9.21000e+02	2.93769	250.5
922	2.54241e+02	9.22000e+02	2.93722	251.0
923	2.54754e+02	9.23000e+02	2.93675	251.5
924	2.55271e+02	9.24000e+02	2.93627	252.0
925	2.55787e+02	9.25000e+02	2.93579	252.5
926	2.56308e+02	9.26000e+02	2.93532	253.0
927	2.56824e+02	9.27000e+02	2.93486	253.5
928	2.57346e+02	9.28000e+02	2.93439	254.0
929	2.57856e+02	9.29000e+02	2.93393	254.5
930	2.58376e+02	9.30000e+02	2.93346	255.0
931	2.58904e+02	9.31000e+02	2.93299	255.5
932	2.59422e+02	9.32000e+02	2.93252	256.0
933	2.59942e+02	9.33000e+02	2.93203	256.5
934	2.60451e+02	9.34000e+02	2.93154	257.0
935	2.60977e+02	9.35000e+02	2.93105	257.5
936	2.61495e+02	9.36000e+02	2.93053	258.0
937	2.62003e+02	9.37000e+02	2.93002	258.5
938	2.62521e+02	9.38000e+02	2.92951	259.0
939	2.63028e+02	9.39000e+02	2.929	259.5
940	2.63565e+02	9.40000e+02	2.92849	260.0
941	2.64080e+02	9.41000e+02	2.92798	260.5
942	2.64604e+02	9.42000e+02	2.92747	261.0
943	2.65111e+02	9.43000e+02	2.92696	261.5
944	2.65635e+02	9.44000e+02	2.92645	262.0
945	2.66152e+02	9.45000e+02	2.92594	262.5
946	2.66671e+02	9.46000e+02	2.92543	263.0
947	2.67196e+02	9.47000e+02	2.92491	263.5
948	2.67709e+02	9.48000e+02	2.92439	264.0
949	2.68218e+02	9.49000e+02	2.92387	264.5
950	2.68741e+02	9.50000e+02	2.92335	265.0
951	2.69250e+02	9.51000e+02	2.92283	265.5
952	2.69762e+02	9.52000e+02	2.9223	266.0
953	2.70275e+02	9.53000e+02	2.92177	266.5
954	2.70777e+02	9.54000e+02	2.92125	267.0
955	2.71309e+02	9.55000e+02	2.92072	267.5
956	2.71818e+02	9.56000e+02	2.92019	268.0
957	2.72339e+02	9.57000e+02	2.91967	268.5
958	2.72852e+02	9.58000e+02	2.91914	269.0
959	2.73373e+02	9.59000e+02	2.9186	269.5
960	2.73882e+02	9.60000e+02	2.91807	270.0
961	2.74418e+02	9.61000e+02	2.91752	270.5
962	2.74915e+02	9.62000e+02	2.91697	271.0
963	2.75435e+02	9.63000e+02	2.91641	271.5
964	2.76002e+02	9.64000e+02	2.91584	272.0
965	2.76474e+02	9.65000e+02	2.91527	272.5
966	2.76999e+02	9.66000e+02	2.9147	273.0
967	2.77498e+02	9.67000e+02	2.91412	273.5
968	2.77960e+02	9.68000e+02	2.91354	274.0
969	2.78440e+02	9.69000e+02	2.91297	274.5
970	2.78945e+02	9.70000e+02	2.91239	275.0
971	2.79459e+02	9.71000e+02	2.91181	275.5
972	2.79964e+02	9.72000e+02	2.91123	276.0
973	2.80486e+02	9.73000e+02	2.91064	276.5
974	2.81048e+02	9.74000e+02	2.91005	277.0
975	2.81612e+02	9.75000e+02	2.90945	277.5
976	2.82120e+02	9.76000e+02	2.90884	278.0
977	2.82669e+02	9.77000e+02	2.90823	278.5
978	2.83225e+02	9.78000e+02	2.90762	279.0
979	2.83769e+02	9.79000e+02	2.90701	279.5
980	2.84312e+02	9.80000e+02	2.90638	280.0
981	2.84831e+02	9.81000e+02	2.90577	280.5
982	2.85360e+02	9.82000e+02	2.90515	281.0
983	2.85870e+02	9.83000e+02	2.90454	281.5
984	2.86376e+02	9.84000e+02	2.90392	282.0
985	2.86865e+02	9.85000e+02	2.90331	282.5
986	2.87364e+02	9.86000e+02	2.90269	283.0
987	2.87868e+02	9.87000e+02	2.90206	283.5
988	2.88358e+02	9.88000e+02	2.90142	284.0
989	2.88876e+02	9.89000e+02	2.90079	284.5
990	2.89380e+02	9.90000e+02	2.90014	285.0
991	2.89909e+02	9.91000e+02	2.89949	285.5
992	2.90455e+02	9.92000e+02	2.89881	286.0
993	2.90967e+02	9.93000e+02	2.89813	286.5
994	2.91480e+02	9.94000e+02	2.89744	287.0
995	2.91984e+02	9.95000e+02	2.89675	287.5
996	2.92463e+02	9.96000e+02	2.89603	288.0
997	2.92950e+02	9.97000e+02	2.89531	288.5
998	2.93458e+02	9.98000e+02	2.89458	289.0
999	2.93985e+02	9.99000e+02	2.89385	289.5
1000	2.94482e+02	1.00000e+03	2.89307	290.0
1001	2.94985e+02	1.00100e+03	2.8923	290.5
1002	2.95486e+02	1.00200e+03	2.89152	291.0
1003	2.96001e+02	1.00300e+03	2.89072	291.5
1004	2.96545e+02	1.00400e+03	2.88987	292.0
1005	2.97062e+02	1.00500e+03	2.88903	292.5
1006	2.97581e+02	1.00600e+03	2.88818	293.0
1007	2.98099e+02	1.00700e+03	2.88733	293.5
1008	2.98608e+02	1.00800e+03	2.88645	294.0
1009	2.99111e+02	1.00900e+03	2.88559	294.5
1010	2.99605e+02	1.01000e+03	2.88473	295.0
1011	3.00124e+02	1.01100e+03	2.88388	295.5
1012	3.00627e+02	1.01200e+03	2.88303	296.0
1013	3.01098e+02	1.01300e+03	2.88216	296.5
1014	3.01578e+02	1.01400e+03	2.88127	297.0
1015	3.02056e+02	1.01500e+03	2.88038	297.5
1016	3.02537e+02	1.01600e+03	2.87942	298.0
1017	3.03017e+02	1.01700e+03	2.87845	298.5
1018	3.03485e+02	1.01800e+03	2.87746	299.0
1019	3.03984e+02	1.01900e+03	2.87645	299.5
1020	3.04504e+02	1.02000e+03	2.87534	300.0
1021	3.05005e+02	1.02100e+03	2.87423	300.5
1022	3.05513e+02	1.02200e+03	2.87311	301.0
1023	3.06032e+02	1.02300e+03	2.87198	301.5
1024	3.06544e+02	1.02400e+03	2.87076	302.0
1025	3.07065e+02	1.02500e+03	2.86956	302.5
1026	3.07572e+02	1.02600e+03	2.86835	303.0
1027	3.08089e+02	1.02700e+03	2.86713	303.5
1028	3.08604e+02	1.02800e+03	2.86586	304.0
1029	3.09139e+02	1.02900e+03	2.86461	304.5
1030	3.09668e+02	1.03000e+03	2.86334	305.0
1031	3.10185e+02	1.03100e+03	2.86206	305.5
1032	3.10657e+02	1.03200e+03	2.86074	306.0
1033	3.11128e+02	1.03300e+03	2.85943	306.5
1034	3.11619e+02	1.03400e+03	2.85811	307.0
1035	3.12127e+02	1.03500e+03	2.85678	307.5
1036	3.12613e+02	1.03600e+03	2.8554	308.0
1037	3.13108e+02	1.03700e+03	2.85404	308.5
1038	3.13597e+02	1.03800e+03	2.85266	309.0
1039	3.14086e+02	1.03900e+03	2.85127	309.5
1040	3.14579e+02	1.04000e+03	2.84985	310.0
1041	3.15061e+02	1.04100e+03	2.84842	310.5
1042	3.15587e+02	1.04200e+03	2.84698	311.0
1043	3.16101e+02	1.04300e+03	2.84552	311.5
1044	3.16639e+02	1.04400e+03	2.84401	312.0
1045	3.17143e+02	1.04500e+03	2.8425	312.5
1046	3.17650e+02	1.04600e+03	2.84098	313.0
1047	3.18154e+02	1.04700e+03	2.83944	313.5
1048	3.18675e+02	1.04800e+03	2.83785	314.0
1049	3.19175e+02	1.04900e+03	2.83627	314.5
1050	3.19681e+02	1.05000e+03	2.83469	315.0
1051	3.20162e+02	1.05100e+03	2.8331	315.5
1052	3.20660e+02	1.05200e+03	2.83147	316.0
1053	3.21148e+02	1.05300e+03	2.82984	316.5
1054	3.21624e+02	1.05400e+03	2.82822	317.0
1055	3.22092e+02	1.05500e+03	2.82658	317.5
1056	3.22577e+02	1.05600e+03	2.82491	318.0
1057	3.23053e+02	1.05700e+03	2.82324	318.5
1058	3.23507e+02	1.05800e+03	2.82157	319.0
1059	3.23981e+02	1.05900e+03	2.81988	319.5
1060	3.24439e+02	1.06000e+03	2.81815	320.0
1061	3.24901e+02	1.06100e+03	2.81642	320.5
1062	3.25367e+02	1.06200e+03	2.81469	321.0
1063	3.25825e+02	1.06300e+03	2.81295	321.5
1064	3.26287e+02	1.06400e+03	2.81117	322.0
1065	3.26746e+02	1.06500e+03	2.80939	322.5
1066	3.27199e+02	1.06600e+03	2.8076	323.0
1067	3.27654e+02	1.06700e+03	2.8058	323.5
1068	3.28102e+02	1.06800e+03	2.80395	324.0
1069	3.28542e+02	1.06900e+03	2.80211	324.5
1070	3.28975e+02	1.07000e+03	2.80025	325.0
1071	3.29411e+02	1.07100e+03	2.79837	325.5
1072	3.29834e+02	1.07200e+03	2.79641	326.0
1073	3.30258e+02	1.07300e+03	2.79444	326.5
1074	3.30662e+02	1.07400e+03	2.79245	327.0
1075	3.31078e+02	1.07500e+03	2.79042	327.5
1076	3.31437e+02	1.07600e+03	2.78827	328.0
1077	3.31770e+02	1.07700e+03	2.78614	328.5
1078	3.32093e+02	1.07800e+03	2.78397	329.0
1079	3.32382e+02	1.07900e+03	2.78179	329.5
1080	3.32730e+02	1.08000e+03	2.77948	330.0
1081	3.33151e+02	1.08100e+03	2.7772	330.5
1082	3.33574e+02	1.08200e+03	2.7749	331.0
1083	3.34042e+02	1.08300e+03	2.77259	331.5
1084	3.34510e+02	1.08400e+03	2.77017	332.0
1085	3.35000e+02	1.08500e+03	2.76776	332.5
1086	3.35491e+02	1.08600e+03	2.76534	333.0
1087	3.35970e+02	1.08700e+03	2.76289	333.5
1088	3.36465e+02	1.08800e+03	2.76033	334.0
1089	3.36959e+02	1.08900e+03	2.75778	334.5
1090	3.37448e+02	1.09000e+03	2.75522	335.0
1091	3.37952e+02	1.09100e+03	2.75263	335.5
1092	3.38445e+02	1.09200e+03	2.74994	336.0
1093	3.38933e+02	1.09300e+03	2.74726	336.5
1094	3.39426e+02	1.09400e+03	2.74457	337.0
1095	3.39927e+02	1.09500e+03	2.74186	337.5
1096	3.40426e+02	1.09600e+03	2.73906	338.0
1097	3.40914e+02	1.09700e+03	2.73626	338.5
1098	3.41408e+02	1.09800e+03	2.73343	339.0
1099	3.41904e+02	1.09900e+03	2.73056	339.5
1100	3.42407e+02	1.10000e+03	2.72756	340.0
1101	3.42889e+02	1.10100e+03	2.72454	340.5
1102	3.43385e+02	1.10200e+03	2.72146	341.0
1103	3.43884e+02	1.10300e+03	2.71834	341.5
1104	3.44379e+02	1.10400e+03	2.71497	342.0
1105	3.44872e+02	1.10500e+03	2.71161	342.5
1106	3.45372e+02	1.10600e+03	2.70818	343.0
1107	3.45873e+02	1.10700e+03	2.70469	343.5
1108	3.46368e+02	1.10800e+03	2.70088	344.0
1109	3.46866e+02	1.10900e+03	2.69709	344.5
1110	3.47354e+02	1.11000e+03	2.69322	345.0
1111	3.47859e+02	1.11100e+03	2.68926	345.5
1112	3.48352e+02	1.11200e+03	2.68492	346.0
1113	3.48835e+02	1.11300e+03	2.6806	346.5
1114	3.49341e+02	1.11400e+03	2.67618	347.0
1115	3.49828e+02	1.11500e+03	2.67168	347.5
1116	3.50329e+02	1.11600e+03	2.66672	348.0
1117	3.50825e+02	1.11700e+03	2.66181	348.5
1118	3.51321e+02	1.11800e+03	2.65681	349.0
1119	3.51812e+02	1.11900e+03	2.65171	349.5
1120	3.52310e+02	1.12000e+03	2.64613	350.0
1121	3.52813e+02	1.12100e+03	2.6406	350.5
1122	3.53329e+02	1.12200e+03	2.63494	351.0
1123	3.53869e+02	1.12300e+03	2.62917	351.5
1124	3.54405e+02	1.12400e+03	2.62282	352.0
1125	3.55189e+02	1.12500e+03	2.61647	352.5
1126	3.55791e+02	1.12600e+03	2.60993	353.0
1127	3.56288e+02	1.12700e+03	2.60322	353.5
1128	3.56754e+02	1.12800e+03	2.59567	354.0
1129	3.57242e+02	1.12900e+03	2.58816	354.5
1130	3.57758e+02	1.13000e+03	2.58042	355.0
1131	3.58341e+02	1.13100e+03	2.57248	355.5
1132	3.58874e+02	1.13200e+03	2.56352	356.0
1133	3.59373e+02	1.13300e+03	2.5547	356.5
1134	3.59866e+02	1.13400e+03	2.54567	357.0
1135	3.60379e+02	1.13500e+03	2.53645	357.5
1136	3.60981e+02	1.13600e+03	2.52622	358.0
1137	3.61539e+02	1.13700e+03	2.51611	358.5
1138	3.61984e+02	1.13800e+03	2.50574	359.0
1139	3.62449e+02	1.13900e+03	2.49513	359.5
1140	3.62914e+02	1.14000e+03	2.48336	360.0
1141	3.63389e+02	1.14100e+03	2.47163	360.5
1142	3.63857e+02	1.14200e+03	2.45957	361.0
1143	3.64360e+02	1.14300e+03	2.44723	361.5
1144	3.64835e+02	1.14400e+03	2.43345	362.0
1145	3.65328e+02	1.14500e+03	2.41987	362.5
1146	3.65894e+02	1.14600e+03	2.406	363.0
1147	3.66750e+02	1.14700e+03	2.39188	363.5
1148	3.67175e+02	1.14800e+03	2.37638	364.0
1149	3.67635e+02	1.14900e+03	2.36112	364.5
1150	3.68122e+02	1.15000e+03	2.3456	365.0
1151	3.68617e+02	1.15100e+03	2.32984	365.5
1152	3.69081e+02	1.15200e+03	2.31284	366.0
1153	3.69565e+02	1.15300e+03	2.29604	366.5
1154	3.70074e+02	1.15400e+03	2.27901	367.0
1155	3.70558e+02	1.15500e+03	2.26175	367.5
1156	3.71076e+02	1.15600e+03	2.24334	368.0
1157	3.71566e+02	1.15700e+03	2.22508	368.5
1158	3.72050e+02	1.15800e+03	2.20658	369.0
1159	3.72544e+02	1.15900e+03	2.18784	369.5
1160	3.73053e+02	1.16000e+03	2.16792	370.0
1161	3.73560e+02	1.16100e+03	2.14813	370.5
1162	3.74047e+02	1.16200e+03	2.12808	371.0
1163	3.74552e+02	1.16300e+03	2.10781	371.5
1164	3.75056e+02	1.16400e+03	2.08633	372.0
1165	3.75586e+02	1.16500e+03	2.06505	372.5
1166	3.76092e+02	1.16600e+03	2.04357	373.0
1167	3.76602e+02	1.16700e+03	2.02189	373.5
1168	3.77109e+02	1.16800e+03	1.99915	374.0
1169	3.77616e+02	1.16900e+03	1.97656	374.5
1170	3.78097e+02	1.17000e+03	1.95379	375.0
1171	3.78575e+02	1.17100e+03	1.93083	375.5
1172	3.79073e+02	1.17200e+03	1.90693	376.0
1173	3.79533e+02	1.17300e+03	1.88321	376.5
1174	3.80006e+02	1.17400e+03	1.85934	377.0
1175	3.80477e+02	1.17500e+03	1.83531	377.5
1176	3.80952e+02	1.17600e+03	1.81053	378.0
1177	3.81419e+02	1.17700e+03	1.78588	378.5
1178	3.81890e+02	1.17800e+03	1.7611	379.0
1179	3.82373e+02	1.17900e+03	1.7362	379.5
1180	3.82848e+02	1.18000e+03	1.71071	380.0
1181	3.83369e+02	1.18100e+03	1.68537	380.5
1182	3.83885e+02	1.18200e+03	1.65997	381.0
1183	3.84368e+02	1.18300e+03	1.63451	381.5
1184	3.84832e+02	1.18400e+03	1.60865	382.0
1185	3.85331e+02	1.18500e+03	1.58286	382.5
1186	3.85901e+02	1.18600e+03	1.55699	383.0
1187	3.86410e+02	1.18700e+03	1.53104	383.5
1188	3.86911e+02	1.18800e+03	1.50473	384.0
1189	3.87409e+02	1.18900e+03	1.47847	384.5
1190	3.87897e+02	1.19000e+03	1.45215	385.0
1191	3.88389e+02	1.19100e+03	1.42578	385.5
1192	3.88859e+02	1.19200e+03	1.39913	386.0
1193	3.89377e+02	1.19300e+03	1.37261	386.5
1194	3.89908e+02	1.19400e+03	1.34611	387.0
1195	3.90431e+02	1.19500e+03	1.31961	387.5
1196	3.90911e+02	1.19600e+03	1.29314	388.0
1197	3.91437e+02	1.19700e+03	1.26674	388.5
1198	3.91970e+02	1.19800e+03	1.24039	389.0
1199	3.92492e+02	1.19900e+03	1.21409	389.5
1200	3.92975e+02	1.20000e+03	1.18798	390.0
1201	3.93410e+02	1.20100e+03	1.16182	390.5
1202	3.93879e+02	1.20200e+03	1.13566	391.0
1203	3.94326e+02	1.20300e+03	1.1095	391.5
1204	3.94803e+02	1.20400e+03	1.08343	392.0
1205	3.95308e+02	1.20500e+03	1.05731	392.5
1206	3.95818e+02	1.20600e+03	1.03121	393.0
1207	3.96291e+02	1.20700e+03	1.00513	393.5
1208	3.96771e+02	1.20800e+03	0.979159	394.0
1209	3.97254e+02	1.20900e+03	0.953277	394.5
1210	3.97735e+02	1.21000e+03	0.927488	395.0
1211	3.98232e+02	1.21100e+03	0.901756	395.5
1212	3.98716e+02	1.21200e+03	0.876287	396.0
1213	3.99217e+02	1.21300e+03	0.850676	396.5
1214	3.99712e+02	1.21400e+03	0.825022	397.0
1215	4.00220e+02	1.21500e+03	0.799346	397.5
1216	4.00719e+02	1.21600e+03	0.77362	398.0
1217	4.01213e+02	1.21700e+03	0.747878	398.5
1218	4.01730e+02	1.21800e+03	0.722152	399.0
1219	4.02224e+02	1.21900e+03	0.696458	399.5
1220	4.02727e+02	1.22000e+03	0.670849	400.0
1221	4.03241e+02	1.22100e+03	0.645446	400.5
1222	4.03746e+02	1.22200e+03	0.620287	401.0
1223	4.04257e+02	1.22300e+03	0.595323	401.5
1224	4.04772e+02	1.22400e+03	0.571285	402.0
1225	4.05274e+02	1.22500e+03	0.547353	402.5
1226	4.05810e+02	1.22600e+03	0.523824	403.0
1227	4.06325e+02	1.22700e+03	0.500619	403.5
1228	4.06847e+02	1.22800e+03	0.479079	404.0
1229	4.07403e+02	1.22900e+03	0.457407	404.5
1230	4.07947e+02	1.23000e+03	0.43616	405.0
1231	4.08492e+02	1.23100e+03	0.415291	405.5
1232	4.09038e+02	1.23200e+03	0.39638	406.0
1233	4.09552e+02	1.23300e+03	0.377231	406.5
1234	4.10035e+02	1.23400e+03	0.358509	407.0
1235	4.10532e+02	1.23500e+03	0.34018	407.5
1236	4.11052e+02	1.23600e+03	0.323876	408.0
1237	4.11564e+02	1.23700e+03	0.3073	408.5
1238	4.12091e+02	1.23800e+03	0.291133	409.0
1239	4.12621e+02	1.23900e+03	0.275343	409.5
1240	4.13178e+02	1.24000e+03	0.26152	410.0
1241	4.13667e+02	1.24100e+03	0.247395	410.5
1242	4.14163e+02	1.24200e+03	0.23364	411.0
1243	4.14644e+02	1.24300e+03	0.220234	411.5
1244	4.15119e+02	1.24400e+03	0.208629	412.0
1245	4.15586e+02	1.24500e+03	0.196739	412.5
1246	4.16070e+02	1.24600e+03	0.185179	413.0
1247	4.16561e+02	1.24700e+03	0.173932	413.5
1248	4.17071e+02	1.24800e+03	0.164312	414.0
1249	4.17575e+02	1.24900e+03	0.154431	414.5
1250	4.18068e+02	1.25000e+03	0.144848	415.0
1251	4.18577e+02	1.25100e+03	0.135546	415.5
1252	4.19085e+02	1.25200e+03	0.127695	416.0
1253	4.19580e+02	1.25300e+03	0.119605	416.5
1254	4.20083e+02	1.25400e+03	0.111772	417.0
1255	4.20587e+02	1.25500e+03	0.104187	417.5
1256	4.21073e+02	1.25600e+03	0.0978695	418.0
1257	4.21560e+02	1.25700e+03	0.0913301	418.5
1258	4.22052e+02	1.25800e+03	0.0850057	419.0
1259	4.22572e+02	1.25900e+03	0.0788907	419.5
1260	4.23083e+02	1.26000e+03	0.0738493	420.0
1261	4.23569e+02	1.26100e+03	0.0686174	420.5
1262	4.24034e+02	1.26200e+03	0.063565	421.0
1263	4.24533e+02	1.26300e+03	0.0586868	421.5
1264	4.25024e+02	1.26400e+03	0.0547042	422.0
1265	4.25494e+02	1.26500e+03	0.0505551	422.5
1266	4.25991e+02	1.26600e+03	0.0465485	423.0
1267	4.26487e+02	1.26700e+03	0.0426827	423.5
1268	4.26983e+02	1.26800e+03	0.0395483	424.0
1269	4.27483e+02	1.26900e+03	0.0362783	424.5
1270	4.27981e+02	1.27000e+03	0.0331239	425.0
1271	4.28470e+02	1.27100e+03	0.0300845	425.5
1272	4.28965e+02	1.27200e+03	0.0276365	426.0
1273	4.29470e+02	1.27300e+03	0.0250769	426.5
1274	4.29952e+02	1.27400e+03	0.0226103	427.0
1275	4.30468e+02	1.27500e+03	0.0202353	427.5
1276	4.30946e+02	1.27600e+03	0.0183334	428.0
1277	4.31454e+02	1.27700e+03	0.0163397	428.5
1278	4.31982e+02	1.27800e+03	0.014416	429.0
1279	4.32485e+02	1.27900e+03	0.0125631	429.5
1280	4.32989e+02	1.28000e+03	0.0110769	430.0
1281	4.33479e+02	1.28100e+03	0.00951467	430.5
1282	4.33952e+02	1.28200e+03	0.00800337	431.0
1283	4.34457e+02	1.28300e+03	0.00654428	431.5
1284	4.34948e+02	1.28400e+03	0.00535387	432.0
1285	4.35443e+02	1.28500e+03	0.0041062	432.5
1286	4.35956e+02	1.28600e+03	0.00289674	433.0
1287	4.36454e+02	1.28700e+03	0.00172725	433.5
1288	4.36943e+02	1.28800e+03	0.00076231	434.0
1289	4.37447e+02	1.28900e+03	-0.000237178	434.5
1290	4.37935e+02	1.29000e+03	-0.00120307	435.0
1291	4.38418e+02	1.29100e+03	-0.00213661	435.5
1292	4.38911e+02	1.29200e+03	-0.00289558	436.0
1293	4.39390e+02	1.29300e+03	-0.00368867	436.5
1294	4.39883e+02	1.29400e+03	-0.00445812	437.0
1295	4.40373e+02	1.29500e+03	-0.00520322	437.5
1296	4.40859e+02	1.29600e+03	-0.00582049	438.0
1297	4.41353e+02	1.29700e+03	-0.00646922	438.5
1298	4.41845e+02	1.29800e+03	-0.00710397	439.0
1299	4.42338e+02	1.29900e+03	-0.0077231	439.5
1300	4.42852e+02	1.30000e+03	-0.00826381	440.0
1301	4.43346e+02	1.30100e+03	-0.00882179	440.5
1302	4.43854e+02	1.30200e+03	-0.00936789	441.0
1303	4.44350e+02	1.30300e+03	-0.00990119	441.5
1304	4.44835e+02	1.30400e+03	-0.0103736	442.0
1305	4.45319e+02	1.30500e+03	-0.0108527	442.5
1306	4.45801e+02	1.30600e+03	-0.0113174	443.0
1307	4.46285e+02	1.30700e+03	-0.01177	443.5
1308	4.46765e+02	1.30800e+03	-0.0121622	444.0
1309	4.47261e+02	1.30900e+03	-0.0125666	444.5
1310	4.47751e+02	1.31000e+03	-0.0129627	445.0
1311	4.48238e+02	1.31100e+03	-0.0133504	445.5
1312	4.48720e+02	1.31200e+03	-0.0136933	446.0
1313	4.49210e+02	1.31300e+03	-0.0140458	446.5
1314	4.49693e+02	1.31400e+03	-0.0143903	447.0
1315	4.50191e+02	1.31500e+03	-0.0147268	447.5
1316	4.50683e+02	1.31600e+03	-0.0150263	448.0
1317	4.51197e+02	1.31700e+03	-0.0153278	448.5
1318	4.51682e+02	1.31800e+03	-0.0156181	449.0
1319	4.52174e+02	1.31900e+03	-0.0158979	449.5
1320	4.52678e+02	1.32000e+03	-0.0161241	450.0
1321	4.53174e+02	1.32100e+03	-0.0163529	450.5
1322	4.53679e+02	1.32200e+03	-0.0165686	451.0
1323	4.54165e+02	1.32300e+03	-0.0167737	451.5
1324	4.54651e+02	1.32400e+03	-0.0169204	452.0
1325	4.55136e+02	1.32500e+03	-0.017081	452.5
1326	4.55633e+02	1.32600e+03	-0.0172367	453.0
1327	4.56134e+02	1.32700e+03	-0.0173869	453.5
1328	4.56620e+02	1.32800e+03	-0.0175113	454.0
1329	4.57111e+02	1.32900e+03	-0.0176485	454.5
1330	4.57597e+02	1.33000e+03	-0.0177838	455.0
1331	4.58075e+02	1.33100e+03	-0.0179153	455.5
1332	4.58577e+02	1.33200e+03	-0.0180304	456.0
1333	4.59068e+02	1.33300e+03	-0.0181341	456.5
1334	4.59558e+02	1.33400e+03	-0.0182235	457.0
1335	4.60030e+02	1.33500e+03	-0.0183031	457.5
1336	4.60513e+02	1.33600e+03	-0.0183242	458.0
1337	4.61010e+02	1.33700e+03	-0.018351	458.5
1338	4.61504e+02	1.33800e+03	-0.0183698	459.0
1339	4.61974e+02	1.33900e+03	-0.0183821	459.5
1340	4.62495e+02	1.34000e+03	-0.0183554	460.0
1341	4.63014e+02	1.34100e+03	-0.0183536	460.5
1342	4.63511e+02	1.34200e+03	-0.0183579	461.0
1343	4.64006e+02	1.34300e+03	-0.0183634	461.5
1344	4.64523e+02	1.34400e+03	-0.0183834	462.0
1345	4.65037e+02	1.34500e+03	-0.0184003	462.5
1346	4.65526e+02	1.34600e+03	-0.0184182	463.0
1347	4.66034e+02	1.34700e+03	-0.0184372	463.5
1348	4.66524e+02	1.34800e+03	-0.0184641	464.0
1349	4.67007e+02	1.34900e+03	-0.0184871	464.5
1350	4.67487e+02	1.35000e+03	-0.018509	465.0
1351	4.67982e+02	1.35100e+03	-0.0185303	465.5
1352	4.68494e+02	1.35200e+03	-0.0185522	466.0
1353	4.68982e+02	1.35300e+03	-0.0185763	466.5
1354	4.69471e+02	1.35400e+03	-0.0186023	467.0
1355	4.70008e+02	1.35500e+03	-0.0186297	467.5
1356	4.70507e+02	1.35600e+03	-0.0186634	468.0
1357	4.71019e+02	1.35700e+03	-0.0186981	468.5
1358	4.71528e+02	1.35800e+03	-0.0187345	469.0
1359	4.71986e+02	1.35900e+03	-0.0187718	469.5
1360	4.72484e+02	1.36000e+03	-0.0188158	470.0
1361	4.72967e+02	1.36100e+03	-0.0188552	470.5
1362	4.73454e+02	1.36200e+03	-0.0188918	471.0
1363	4.73951e+02	1.36300e+03	-0.0189264	471.5
1364	4.74430e+02	1.36400e+03	-0.0189542	472.0
1365	4.74914e+02	1.36500e+03	-0.0189799	472.5
1366	4.75412e+02	1.36600e+03	-0.019002	473.0
1367	4.75902e+02	1.36700e+03	-0.0190221	473.5
1368	4.76389e+02	1.36800e+03	-0.0190322	474.0
1369	4.76898e+02	1.36900e+03	-0.0190475	474.5
1370	4.77378e+02	1.37000e+03	-0.0190634	475.0
1371	4.77864e+02	1.37100e+03	-0.0190796	475.5
1372	4.78340e+02	1.37200e+03	-0.0190996	476.0
1373	4.78815e+02	1.37300e+03	-0.0191222	476.5
1374	4.79319e+02	1.37400e+03	-0.0191474	477.0
1375	4.79793e+02	1.37500e+03	-0.0191744	477.5
1376	4.80287e+02	1.37600e+03	-0.0192101	478.0
1377	4.80779e+02	1.37700e+03	-0.0192404	478.5
1378	4.81291e+02	1.37800e+03	-0.0192678	479.0
1379	4.81797e+02	1.37900e+03	-0.0192941	479.5
1380	4.82275e+02	1.38000e+03	-0.0193181	480.0
1381	4.82756e+02	1.38100e+03	-0.0193398	480.5
1382	4.83263e+02	1.38200e+03	-0.0193587	481.0
1383	4.83765e+02	1.38300e+03	-0.0193758	481.5
1384	4.84264e+02	1.38400e+03	-0.0193823	482.0
1385	4.84765e+02	1.38500e+03	-0.019391	482.5
1386	4.85267e+02	1.38600e+03	-0.0193992	483.0
1387	4.85759e+02	1.38700e+03	-0.0194064	483.5
1388	4.86262e+02	1.38800e+03	-0.019409	484.0
1389	4.86760e+02	1.38900e+03	-0.0194163	484.5
1390	4.87261e+02	1.39000e+03	-0.0194263	485.0
1391	4.87738e+02	1.39100e+03	-0.0194378	485.5
1392	4.88213e+02	1.39200e+03	-0.0194553	486.0
1393	4.88684e+02	1.39300e+03	-0.019472	486.5
1394	4.89153e+02	1.39400e+03	-0.0194898	487.0
1395	4.89646e+02	1.39500e+03	-0.0195085	487.5
1396	4.90125e+02	1.39600e+03	-0.0195328	488.0
1397	4.90590e+02	1.39700e+03	-0.019555	488.5
1398	4.91046e+02	1.39800e+03	-0.0195762	489.0
1399	4.91532e+02	1.39900e+03	-0.0195967	489.5
1400	4.92010e+02	1.40000e+03	-0.0196132	490.0
1401	4.92506e+02	1.40100e+03	-0.0196262	490.5
1402	4.93001e+02	1.40200e+03	-0.0196351	491.0
1403	4.93488e+02	1.40300e+03	-0.0196414	491.5
1404	4.93958e+02	1.40400e+03	-0.019637	492.0
1405	4.94438e+02	1.40500e+03	-0.0196382	492.5
1406	4.94940e+02	1.40600e+03	-0.0196419	493.0
1407	4.95439e+02	1.40700e+03	-0.0196471	493.5
1408	4.95903e+02	1.40800e+03	-0.019656	494.0
1409	4.96380e+02	1.40900e+03	-0.0196688	494.5
1410	4.96858e+02	1.41000e+03	-0.0196843	495.0
1411	4.97325e+02	1.41100e+03	-0.019701	495.5
1412	4.97812e+02	1.41200e+03	-0.0197283	496.0
1413	4.98313e+02	1.41300e+03	-0.0197496	496.5
1414	4.98794e+02	1.41400e+03	-0.0197696	497.0
1415	4.99257e+02	1.41500e+03	-0.0197897	497.5
1416	4.99724e+02	1.41600e+03	-0.0198127	498.0
1417	5.00209e+02	1.41700e+03	-0.0198399	498.5
1418	5.00692e+02	1.41800e+03	-0.019872	499.0
1419	5.01184e+02	1.41900e+03	-0.0199072	499.5
1420	5.01653e+02	1.42000e+03	-0.0199559	500.0
1421	5.02133e+02	1.42100e+03	-0.020001	500.5
1422	5.02613e+02	1.42200e+03	-0.0200449	501.0
1423	5.03086e+02	1.42300e+03	-0.0200884	501.5
1424	5.03562e+02	1.42400e+03	-0.0201358	502.0
1425	5.04031e+02	1.42500e+03	-0.0201769	502.5
1426	5.04515e+02	1.42600e+03	-0.0202152	503.0
1427	5.04987e+02	1.42700e+03	-0.0202524	503.5
1428	5.05464e+02	1.42800e+03	-0.0202766	504.0
1429	5.05937e+02	1.42900e+03	-0.0203026	504.5
1430	5.06418e+02	1.43000e+03	-0.0203257	505.0
1431	5.06890e+02	1.43100e+03	-0.0203463	505.5
1432	5.07397e+02	1.43200e+03	-0.0203543	506.0
1433	5.07860e+02	1.43300e+03	-0.0203642	506.5
1434	5.08347e+02	1.43400e+03	-0.0203729	507.0
1435	5.08830e+02	1.43500e+03	-0.02038	507.5
1436	5.09307e+02	1.43600e+03	-0.0203761	508.0
1437	5.09792e+02	1.43700e+03	-0.0203763	508.5
1438	5.10284e+02	1.43800e+03	-0.0203764	509.0
1439	5.10764e+02	1.43900e+03	-0.0203756	509.5
1440	5.11248e+02	1.44000e+03	-0.0203729	510.0
1441	5.11736e+02	1.44100e+03	-0.0203721	510.5
1442	5.12223e+02	1.44200e+03	-0.0203724	511.0
1443	5.12701e+02	1.44300e+03	-0.0203737	511.5
1444	5.13192e+02	1.44400e+03	-0.0203811	512.0
1445	5.13694e+02	1.44500e+03	-0.0203902	512.5
1446	5.14169e+02	1.44600e+03	-0.0204021	513.0
1447	5.14651e+02	1.44700e+03	-0.020416	513.5
1448	5.15142e+02	1.44800e+03	-0.0204427	514.0
1449	5.15628e+02	1.44900e+03	-0.0204668	514.5
1450	5.16127e+02	1.45000e+03	-0.0204921	515.0
1451	5.16617e+02	1.45100e+03	-0.0205185	515.5
1452	5.17118e+02	1.45200e+03	-0.0205524	516.0
1453	5.17606e+02	1.45300e+03	-0.0205829	516.5
1454	5.18113e+02	1.45400e+03	-0.0206124	517.0
1455	5.18605e+02	1.45500e+03	-0.0206409	517.5
1456	5.19105e+02	1.45600e+03	-0.0206641	518.0
1457	5.19601e+02	1.45700e+03	-0.0206834	518.5
1458	5.20085e+02	1.45800e+03	-0.0206979	519.0
1459	5.20560e+02	1.45900e+03	-0.0207093	519.5
1460	5.21040e+02	1.46000e+03	-0.0207071	520.0
1461	5.21519e+02	1.46100e+03	-0.0207108	520.5
1462	5.22000e+02	1.46200e+03	-0.0207161	521.0
1463	5.22501e+02	1.46300e+03	-0.020722	521.5
1464	5.22986e+02	1.46400e+03	-0.0207288	522.0
1465	5.23465e+02	1.46500e+03	-0.0207397	522.5
1466	5.23968e+02	1.46600e+03	-0.020753	523.0
1467	5.24449e+02	1.46700e+03	-0.0207674	523.5
1468	5.24929e+02	1.46800e+03	-0.0207904	524.0
1469	5.25409e+02	1.46900e+03	-0.0208086	524.5
1470	5.25886e+02	1.47000e+03	-0.0208252	525.0
1471	5.26377e+02	1.47100e+03	-0.0208405	525.5
1472	5.26861e+02	1.47200e+03	-0.0208494	526.0
1473	5.27345e+02	1.47300e+03	-0.0208569	526.5
1474	5.27846e+02	1.47400e+03	-0.0208619	527.0
1475	5.28333e+02	1.47500e+03	-0.020865	527.5
1476	5.28821e+02	1.47600e+03	-0.0208559	528.0
1477	5.29315e+02	1.47700e+03	-0.0208516	528.5
1478	5.29804e+02	1.47800e+03	-0.0208491	529.0
1479	5.30289e+02	1.47900e+03	-0.0208478	529.5
1480	5.30758e+02	1.48000e+03	-0.0208497	530.0
1481	5.31264e+02	1.48100e+03	-0.0208553	530.5
1482	5.31757e+02	1.48200e+03	-0.0208639	531.0
1483	5.32238e+02	1.48300e+03	-0.0208749	531.5
1484	5.32732e+02	1.48400e+03	-0.0209032	532.0
1485	5.33215e+02	1.48500e+03	-0.0209301	532.5
1486	5.33709e+02	1.48600e+03	-0.0209622	533.0
1487	5.34188e+02	1.48700e+03	-0.0209988	533.5
1488	5.34697e+02	1.48800e+03	-0.0210565	534.0
1489	5.35179e+02	1.48900e+03	-0.0211104	534.5
1490	5.35673e+02	1.49000e+03	-0.0211642	535.0
1491	5.36159e+02	1.49100e+03	-0.0212174	535.5
1492	5.36635e+02	1.49200e+03	-0.0212745	536.0
1493	5.37132e+02	1.49300e+03	-0.0213215	536.5
1494	5.37620e+02	1.49400e+03	-0.0213654	537.0
1495	5.38116e+02	1.49500e+03	-0.0214089	537.5
1496	5.38612e+02	1.49600e+03	-0.021443	538.0
1497	5.39103e+02	1.49700e+03	-0.0214887	538.5
1498	5.39600e+02	1.49800e+03	-0.0215384	539.0
1499	5.40082e+02	1.49900e+03	-0.0215895	539.5
1500	5.40586e+02	1.50000e+03	-0.0216467	540.0
1501	5.41078e+02	1.50100e+03	-0.0216891	540.5
1502	5.41553e+02	1.50200e+03	-0.0217191	541.0
1503	5.42027e+02	1.50300e+03	-0.0217405	541.5
1504	5.42515e+02	1.50400e+03	-0.0217118	542.0
1505	5.43000e+02	1.50500e+03	-0.0216775	542.5
1506	5.43495e+02	1.50600e+03	-0.0216293	543.0
1507	5.43980e+02	1.50700e+03	-0.0215712	543.5
1508	5.44481e+02	1.50800e+03	-0.0214568	544.0
1509	5.44970e+02	1.50900e+03	-0.0213744	544.5
1510	5.45469e+02	1.51000e+03	-0.0213026	545.0
1511	5.45968e+02	1.51100e+03	-0.0212365	545.5
1512	5.46460e+02	1.51200e+03	-0.021202	546.0
1513	5.46946e+02	1.51300e+03	-0.0211776	546.5
1514	5.47437e+02	1.51400e+03	-0.0211667	547.0
1515	5.47936e+02	1.51500e+03	-0.0211646	547.5
1516	5.48433e+02	1.51600e+03	-0.0212158	548.0
1517	5.48928e+02	1.51700e+03	-0.0212443	548.5
1518	5.49424e+02	1.51800e+03	-0.0212702	549.0
1519	5.49925e+02	1.51900e+03	-0.0212972	549.5
1520	5.50431e+02	1.52000e+03	-0.0213318	550.0
1521	5.50932e+02	1.52100e+03	-0.0213627	550.5
1522	5.51412e+02	1.52200e+03	-0.0213943	551.0
1523	5.51904e+02	1.52300e+03	-0.0214275	551.5
1524	5.52413e+02	1.52400e+03	-0.0214633	552.0
1525	5.52899e+02	1.52500e+03	-0.021501	552.5
1526	5.53382e+02	1.52600e+03	-0.02154	553.0
1527	5.53871e+02	1.52700e+03	-0.0215793	553.5
1528	5.54371e+02	1.52800e+03	-0.0216229	554.0
1529	5.54866e+02	1.52900e+03	-0.0216615	554.5
1530	5.55364e+02	1.53000e+03	-0.0216971	555.0
1531	5.55857e+02	1.53100e+03	-0.0217303	555.5
1532	5.56349e+02	1.53200e+03	-0.0217486	556.0
1533	5.56844e+02	1.53300e+03	-0.0217648	556.5
1534	5.57336e+02	1.53400e+03	-0.0217767	557.0
1535	5.57825e+02	1.53500e+03	-0.0217856	557.5
1536	5.58327e+02	1.53600e+03	-0.0217741	558.0
1537	5.58814e+02	1.53700e+03	-0.0217691	558.5
1538	5.59308e+02	1.53800e+03	-0.0217636	559.0
1539	5.59799e+02	1.53900e+03	-0.0217569	559.5
1540	5.60287e+02	1.54000e+03	-0.0217431	560.0
1541	5.60788e+02	1.54100e+03	-0.0217339	560.5
1542	5.61280e+02	1.54200e+03	-0.0217279	561.0
1543	5.61780e+02	1.54300e+03	-0.0217236	561.5
1544	5.62270e+02	1.54400e+03	-0.021726	562.0
1545	5.62775e+02	1.54500e+03	-0.0217318	562.5
1546	5.63257e+02	1.54600e+03	-0.0217426	563.0
1547	5.63738e+02	1.54700e+03	-0.0217569	563.5
1548	5.64229e+02	1.54800e+03	-0.021792	564.0
1549	5.64731e+02	1.54900e+03	-0.0218233	564.5
1550	5.65214e+02	1.55000e+03	-0.0218552	565.0
1551	5.65715e+02	1.55100e+03	-0.0218879	565.5
1552	5.66195e+02	1.55200e+03	-0.0219306	566.0
1553	5.66695e+02	1.55300e+03	-0.0219654	566.5
1554	5.67188e+02	1.55400e+03	-0.0219981	567.0
1555	5.67679e+02	1.55500e+03	-0.0220303	567.5
1556	5.68185e+02	1.55600e+03	-0.0220537	568.0
1557	5.68688e+02	1.55700e+03	-0.0220791	568.5
1558	5.69173e+02	1.55800e+03	-0.0221041	569.0
1559	5.69665e+02	1.55900e+03	-0.0221287	569.5
1560	5.70168e+02	1.56000e+03	-0.0221487	570.0
1561	5.70666e+02	1.56100e+03	-0.0221703	570.5
1562	5.71163e+02	1.56200e+03	-0.0221922	571.0
1563	5.71663e+02	1.56300e+03	-0.0222143	571.5
1564	5.72154e+02	1.56400e+03	-0.0222363	572.0
1565	5.72657e+02	1.56500e+03	-0.0222573	572.5
1566	5.73143e+02	1.56600e+03	-0.0222763	573.0
1567	5.73636e+02	1.56700e+03	-0.0222939	573.5
1568	5.74131e+02	1.56800e+03	-0.022307	574.0
1569	5.74633e+02	1.56900e+03	-0.0223186	574.5
1570	5.75124e+02	1.57000e+03	-0.0223295	575.0
1571	5.75633e+02	1.57100e+03	-0.0223403	575.5
1572	5.76130e+02	1.57200e+03	-0.0223468	576.0
1573	5.76630e+02	1.57300e+03	-0.0223578	576.5
1574	5.77135e+02	1.57400e+03	-0.0223701	577.0
1575	5.77636e+02	1.57500e+03	-0.0223827	577.5
1576	5.78139e+02	1.57600e+03	-0.0224012	578.0
1577	5.78644e+02	1.57700e+03	-0.022418	578.5
1578	5.79152e+02	1.57800e+03	-0.0224356	579.0
1579	5.79668e+02	1.57900e+03	-0.0224542	579.5
1580	5.80165e+02	1.58000e+03	-0.022477	580.0
1581	5.80666e+02	1.58100e+03	-0.0224994	580.5
1582	5.81150e+02	1.58200e+03	-0.0225214	581.0
1583	5.81648e+02	1.58300e+03	-0.0225427	581.5
1584	5.82149e+02	1.58400e+03	-0.0225643	582.0
1585	5.82661e+02	1.58500e+03	-0.0225813	582.5
1586	5.83153e+02	1.58600e+03	-0.0225944	583.0
1587	5.83647e+02	1.58700e+03	-0.0226053	583.5
1588	5.84149e+02	1.58800e+03	-0.0226074	584.0
1589	5.84656e+02	1.58900e+03	-0.0226136	584.5
1590	5.85148e+02	1.59000e+03	-0.0226211	585.0
1591	5.85644e+02	1.59100e+03	-0.0226295	585.5
1592	5.86130e+02	1.59200e+03	-0.0226423	586.0
1593	5.86625e+02	1.59300e+03	-0.022659	586.5
1594	5.87138e+02	1.59400e+03	-0.0226796	587.0
1595	5.87662e+02	1.59500e+03	-0.0227034	587.5
1596	5.88171e+02	1.59600e+03	-0.0227486	588.0
1597	5.88670e+02	1.59700e+03	-0.0227942	588.5
1598	5.89182e+02	1.59800e+03	-0.0228463	589.0
1599	5.89693e+02	1.59900e+03	-0.0229042	589.5
1600	5.90211e+02	1.60000e+03	-0.0229917	590.0
1601	5.90750e+02	1.60100e+03	-0.0230723	590.5
1602	5.91249e+02	1.60200e+03	-0.0231521	591.0
1603	5.91757e+02	1.60300e+03	-0.0232309	591.5
1604	5.92266e+02	1.60400e+03	-0.0233062	592.0
1605	5.92768e+02	1.60500e+03	-0.0233617	592.5
1606	5.93285e+02	1.60600e+03	-0.023401	593.0
1607	5.93803e+02	1.60700e+03	-0.0234297	593.5
1608	5.94336e+02	1.60800e+03	-0.0233952	594.0
1609	5.94863e+02	1.60900e+03	-0.0233697	594.5
1610	5.95370e+02	1.61000e+03	-0.0233377	595.0
1611	5.95883e+02	1.61100e+03	-0.0233001	595.5
1612	5.96434e+02	1.61200e+03	-0.0232267	596.0
1613	5.97012e+02	1.61300e+03	-0.0231794	596.5
1614	5.97571e+02	1.61400e+03	-0.0231413	597.0
1615	5.98187e+02	1.61500e+03	-0.023107	597.5
1616	5.98851e+02	1.61600e+03	-0.0231009	598.0
1617	5.99466e+02	1.61700e+03	-0.0230923	598.5
1618	6.00068e+02	1.61800e+03	-0.0230881	599.0
1619	6.00597e+02	1.61900e+03	-0.023088	599.5
1620	6.01127e+02	1.62000e+03	-0.0231147	600.0
1621	6.01644e+02	1.62100e+03	-0.0231326	600.5
1622	6.02127e+02	1.62200e+03	-0.0231519	601.0
1623	6.02669e+02	1.62300e+03	-0.0231733	601.5
1624	6.03184e+02	1.62400e+03	-0.0232035	602.0
1625	6.03698e+02	1.62500e+03	-0.0232299	602.5
1626	6.04167e+02	1.62600e+03	-0.0232546	603.0
1627	6.04672e+02	1.62700e+03	-0.0232781	603.5
1628	6.05141e+02	1.62800e+03	-0.0233011	604.0
1629	6.05632e+02	1.62900e+03	-0.0233226	604.5
1630	6.06145e+02	1.63000e+03	-0.0233436	605.0
1631	6.06677e+02	1.63100e+03	-0.0233646	605.5
1632	6.07196e+02	1.63200e+03	-0.0233821	606.0
1633	6.07687e+02	1.63300e+03	-0.023402	606.5
1634	6.08202e+02	1.63400e+03	-0.0234213	607.0
1635	6.08711e+02	1.63500e+03	-0.0234394	607.5
1636	6.09203e+02	1.63600e+03	-0.0234559	608.0
1637	6.09752e+02	1.63700e+03	-0.0234708	608.5
1638	6.10254e+02	1.63800e+03	-0.0234852	609.0
1639	6.10731e+02	1.63900e+03	-0.0234993	609.5
1640	6.11252e+02	1.64000e+03	-0.0235088	610.0
1641	6.11743e+02	1.64100e+03	-0.0235202	610.5
1642	6.12274e+02	1.64200e+03	-0.0235303	611.0
1643	6.12785e+02	1.64300e+03	-0.0235391	611.5
1644	6.13306e+02	1.64400e+03	-0.0235471	612.0
1645	6.13795e+02	1.64500e+03	-0.0235555	612.5
1646	6.14306e+02	1.64600e+03	-0.0235649	613.0
1647	6.14856e+02	1.64700e+03	-0.023575	613.5
1648	6.15365e+02	1.64800e+03	-0.023585	614.0
1649	6.15883e+02	1.64900e+03	-0.0235961	614.5
1650	6.16403e+02	1.65000e+03	-0.0236068	615.0
1651	6.16950e+02	1.65100e+03	-0.0236167	615.5
1652	6.17430e+02	1.65200e+03	-0.0236265	616.0
1653	6.17926e+02	1.65300e+03	-0.0236327	616.5
1654	6.18425e+02	1.65400e+03	-0.023635	617.0
1655	6.18912e+02	1.65500e+03	-0.0236343	617.5
1656	6.19379e+02	1.65600e+03	-0.0236155	618.0
1657	6.19876e+02	1.65700e+03	-0.023597	618.5
1658	6.20368e+02	1.65800e+03	-0.0235761	619.0
1659	6.20842e+02	1.65900e+03	-0.0235537	619.5
1660	6.21328e+02	1.66000e+03	-0.0235207	620.0
1661	6.21808e+02	1.66100e+03	-0.0235011	620.5
1662	6.22269e+02	1.66200e+03	-0.0234889	621.0
1663	6.22752e+02	1.66300e+03	-0.0234812	621.5
1664	6.23238e+02	1.66400e+03	-0.0234996	622.0
1665	6.23719e+02	1.66500e+03	-0.0235165	622.5
1666	6.24218e+02	1.66600e+03	-0.023537	623.0
1667	6.24694e+02	1.66700e+03	-0.0235602	623.5
1668	6.25177e+02	1.66800e+03	-0.0236014	624.0
1669	6.25663e+02	1.66900e+03	-0.0236276	624.5
1670	6.26171e+02	1.67000e+03	-0.0236461	625.0
1671	6.26665e+02	1.67100e+03	-0.0236601	625.5
1672	6.27162e+02	1.67200e+03	-0.023652	626.0
1673	6.27670e+02	1.67300e+03	-0.0236444	626.5
1674	6.28162e+02	1.67400e+03	-0.023633	627.0
1675	6.28656e+02	1.67500e+03	-0.0236185	627.5
1676	6.29157e+02	1.67600e+03	-0.0235828	628.0
1677	6.29673e+02	1.67700e+03	-0.0235577	628.5
1678	6.30173e+02	1.67800e+03	-0.0235343	629.0
1679	6.30683e+02	1.67900e+03	-0.0235104	629.5
1680	6.31180e+02	1.68000e+03	-0.0234875	630.0
1681	6.31673e+02	1.68100e+03	-0.0234651	630.5
1682	6.32157e+02	1.68200e+03	-0.0234444	631.0
1683	6.32650e+02	1.68300e+03	-0.0234249	631.5
1684	6.33145e+02	1.68400e+03	-0.0234083	632.0
1685	6.33648e+02	1.68500e+03	-0.0233919	632.5
1686	6.34149e+02	1.68600e+03	-0.0233772	633.0
1687	6.34659e+02	1.68700e+03	-0.0233639	633.5
1688	6.35170e+02	1.68800e+03	-0.0233575	634.0
1689	6.35674e+02	1.68900e+03	-0.0233519	634.5
1690	6.36174e+02	1.69000e+03	-0.0233497	635.0
1691	6.36701e+02	1.69100e+03	-0.0233499	635.5
1692	6.37230e+02	1.69200e+03	-0.0233631	636.0
1693	6.37731e+02	1.69300e+03	-0.0233756	636.5
1694	6.38254e+02	1.69400e+03	-0.0233917	637.0
1695	6.38763e+02	1.69500e+03	-0.023411	637.5
1696	6.39247e+02	1.69600e+03	-0.0234478	638.0
1697	6.39761e+02	1.69700e+03	-0.0234806	638.5
1698	6.40300e+02	1.69800e+03	-0.0235129	639.0
1699	6.40829e+02	1.69900e+03	-0.0235449	639.5
1700	6.41345e+02	1.70000e+03	-0.02358	640.0
1701	6.41850e+02	1.70100e+03	-0.0236074	640.5
1702	6.42383e+02	1.70200e+03	-0.0236305	641.0
1703	6.42893e+02	1.70300e+03	-0.0236511	641.5
1704	6.43408e+02	1.70400e+03	-0.0236553	642.0
1705	6.43909e+02	1.70500e+03	-0.0236634	642.5
1706	6.44425e+02	1.70600e+03	-0.0236692	643.0
1707	6.44934e+02	1.70700e+03	-0.0236729	643.5
1708	6.45425e+02	1.70800e+03	-0.0236659	644.0
1709	6.45940e+02	1.70900e+03	-0.0236618	644.5
1710	6.46436e+02	1.71000e+03	-0.0236576	645.0
1711	6.46942e+02	1.71100e+03	-0.0236531	645.5
1712	6.47414e+02	1.71200e+03	-0.023643	646.0
1713	6.47923e+02	1.71300e+03	-0.0236344	646.5
1714	6.48414e+02	1.71400e+03	-0.0236256	647.0
1715	6.48907e+02	1.71500e+03	-0.0236164	647.5
1716	6.49380e+02	1.71600e+03	-0.0236098	648.0
1717	6.49848e+02	1.71700e+03	-0.0236061	648.5
1718	6.50342e+02	1.71800e+03	-0.0236056	649.0
1719	6.50833e+02	1.71900e+03	-0.0236078	649.5
1720	6.51347e+02	1.72000e+03	-0.0236251	650.0
1721	6.51856e+02	1.72100e+03	-0.0236441	650.5
1722	6.52376e+02	1.72200e+03	-0.0236682	651.0
1723	6.52883e+02	1.72300e+03	-0.0236957	651.5
1724	6.53372e+02	1.72400e+03	-0.0237364	652.0
1725	6.53861e+02	1.72500e+03	-0.0237653	652.5
1726	6.54386e+02	1.72600e+03	-0.0237886	653.0
1727	6.54903e+02	1.72700e+03	-0.0238087	653.5
1728	6.55409e+02	1.72800e+03	-0.0238136	654.0
1729	6.55907e+02	1.72900e+03	-0.023817	654.5
1730	6.56416e+02	1.73000e+03	-0.023815	655.0
1731	6.56908e+02	1.73100e+03	-0.0238094	655.5
1732	6.57403e+02	1.73200e+03	-0.0237851	656.0
1733	6.57910e+02	1.73300e+03	-0.0237682	656.5
1734	6.58419e+02	1.73400e+03	-0.023751	657.0
1735	6.58923e+02	1.73500e+03	-0.0237329	657.5
1736	6.59424e+02	1.73600e+03	-0.0237129	658.0
1737	6.59911e+02	1.73700e+03	-0.0236967	658.5
1738	6.60395e+02	1.73800e+03	-0.0236835	659.0
1739	6.60883e+02	1.73900e+03	-0.0236725	659.5
1740	6.61375e+02	1.74000e+03	-0.0236696	660.0
1741	6.61874e+02	1.74100e+03	-0.0236664	660.5
1742	6.62358e+02	1.74200e+03	-0.0236647	661.0
1743	6.62838e+02	1.74300e+03	-0.023664	661.5
1744	6.63321e+02	1.74400e+03	-0.0236686	662.0
1745	6.63811e+02	1.74500e+03	-0.0236678	662.5
1746	6.64286e+02	1.74600e+03	-0.0236644	663.0
1747	6.64782e+02	1.74700e+03	-0.0236595	663.5
1748	6.65259e+02	1.74800e+03	-0.0236495	664.0
1749	6.65758e+02	1.74900e+03	-0.0236418	664.5
1750	6.66261e+02	1.75000e+03	-0.0236342	665.0
1751	6.66754e+02	1.75100e+03	-0.0236267	665.5
1752	6.67247e+02	1.75200e+03	-0.0236189	666.0
1753	6.67746e+02	1.75300e+03	-0.0236127	666.5
1754	6.68239e+02	1.75400e+03	-0.0236083	667.0
1755	6.68740e+02	1.75500e+03	-0.0236059	667.5
1756	6.69260e+02	1.75600e+03	-0.0236106	668.0
1757	6.69748e+02	1.75700e+03	-0.0236151	668.5
1758	6.70258e+02	1.75800e+03	-0.0236204	669.0
1759	6.70762e+02	1.75900e+03	-0.0236258	669.5
1760	6.71263e+02	1.76000e+03	-0.0236337	670.0
1761	6.71757e+02	1.76100e+03	-0.0236348	670.5
1762	6.72265e+02	1.76200e+03	-0.023632	671.0
1763	6.72761e+02	1.76300e+03	-0.0236274	671.5
1764	6.73275e+02	1.76400e+03	-0.0236138	672.0
1765	6.73782e+02	1.76500e+03	-0.0236056	672.5
1766	6.74254e+02	1.76600e+03	-0.0235999	673.0
1767	6.74739e+02	1.76700e+03	-0.0235959	673.5
1768	6.75249e+02	1.76800e+03	-0.0235997	674.0
1769	6.75733e+02	1.76900e+03	-0.0236062	674.5
1770	6.76240e+02	1.77000e+03	-0.0236161	675.0
1771	6.76739e+02	1.77100e+03	-0.0236283	675.5
1772	6.77261e+02	1.77200e+03	-0.023652	676.0
1773	6.77755e+02	1.77300e+03	-0.0236674	676.5
1774	6.78254e+02	1.77400e+03	-0.0236802	677.0
1775	6.78767e+02	1.77500e+03	-0.0236922	677.5
1776	6.79271e+02	1.77600e+03	-0.0237009	678.0
1777	6.79771e+02	1.77700e+03	-0.0237119	678.5
1778	6.80286e+02	1.77800e+03	-0.0237254	679.0
1779	6.80792e+02	1.77900e+03	-0.0237412	679.5
1780	6.81313e+02	1.78000e+03	-0.0237607	680.0
1781	6.81835e+02	1.78100e+03	-0.0237797	680.5
1782	6.82384e+02	1.78200e+03	-0.0237977	681.0
1783	6.82910e+02	1.78300e+03	-0.023815	681.5
1784	6.83420e+02	1.78400e+03	-0.0238352	682.0
1785	6.83943e+02	1.78500e+03	-0.0238507	682.5
1786	6.84464e+02	1.78600e+03	-0.0238633	683.0
1787	6.84982e+02	1.78700e+03	-0.023874	683.5
1788	6.85502e+02	1.78800e+03	-0.0238758	684.0
1789	6.86015e+02	1.78900e+03	-0.0238805	684.5
1790	6.86551e+02	1.79000e+03	-0.0238853	685.0
1791	6.87091e+02	1.79100e+03	-0.02389	685.5
1792	6.87630e+02	1.79200e+03	-0.0238915	686.0
1793	6.88157e+02	1.79300e+03	-0.023894	686.5
1794	6.88710e+02	1.79400e+03	-0.0238949	687.0
1795	6.88948e+02	1.79500e+03	-0.023894	687.5
1796	6.89178e+02	1.79600e+03	-0.023886	688.0
1797	6.89552e+02	1.79700e+03	-0.0238748	688.5
1798	6.89967e+02	1.79800e+03	-0.0238612	689.0
1799	6.90390e+02	1.79900e+03	-0.0238468	689.5
1800	6.90816e+02	1.80000e+03	-0.0238181	690.0
1801	6.91218e+02	1.80100e+03	-0.0237995	690.5
1802	6.91557e+02	1.80200e+03	-0.0237885	691.0
1803	6.91906e+02	1.80300e+03	-0.0237826	691.5
1804	6.92269e+02	1.80400e+03	-0.0237828	692.0
1805	6.92592e+02	1.80500e+03	-0.0237844	692.5
1806	6.92949e+02	1.80600e+03	-0.0237892	693.0
1807	6.93481e+02	1.80700e+03	-0.023796	693.5
1808	6.93873e+02	1.80800e+03	-0.0238136	694.0
1809	6.94134e+02	1.80900e+03	-0.0238252	694.5
1810	6.94410e+02	1.81000e+03	-0.023836	695.0
1811	6.94611e+02	1.81100e+03	-0.0238469	695.5
1812	6.94831e+02	1.81200e+03	-0.0238574	696.0
1813	6.95069e+02	1.81300e+03	-0.0238669	696.5
1814	6.95293e+02	1.81400e+03	-0.0238749	697.0
1815	6.95507e+02	1.81500e+03	-0.0238818	697.5
1816	6.95722e+02	1.81600e+03	-0.0238863	698.0
1817	6.95927e+02	1.81700e+03	-0.0238916	698.5
1818	6.96119e+02	1.81800e+03	-0.023898	699.0
1819	6.96332e+02	1.81900e+03	-0.0239053	699.5
1820	6.96508e+02	1.82000e+03	-0.0239167	700.0
1821	6.96706e+02	1.82100e+03	-0.0239325	700.0
1822	6.96895e+02	1.82200e+03	-0.023952	700.0
1823	6.97065e+02	1.82300e+03	-0.0239734	700.0
1824	6.97188e+02	1.82400e+03	-0.024007	700.0
1825	6.97321e+02	1.82500e+03	-0.0240334	700.0
1826	6.97468e+02	1.82600e+03	-0.0240547	700.0
1827	6.97615e+02	1.82700e+03	-0.0240717	700.0
1828	6.97760e+02	1.82800e+03	-0.0240836	700.0
1829	6.97850e+02	1.82900e+03	-0.0240959	700.0
1830	6.97942e+02	1.83000e+03	-0.024108	700.0
1831	6.98036e+02	1.83100e+03	-0.0241209	700.0
1832	6.98111e+02	1.83200e+03	-0.0241311	700.0
1833	6.98210e+02	1.83300e+03	-0.0241457	700.0
1834	6.98302e+02	1.83400e+03	-0.0241604	700.0
1835	6.98410e+02	1.83500e+03	-0.0241747	700.0
1836	6.98493e+02	1.83600e+03	-0.0241892	700.0
1837	6.98579e+02	1.83700e+03	-0.0241932	700.0
1838	6.98680e+02	1.83800e+03	-0.0241906	700.0
1839	6.98755e+02	1.83900e+03	-0.0241857	700.0
1840	6.98836e+02	1.84000e+03	-0.0241628	700.0
1841	6.98935e+02	1.84100e+03	-0.0241453	700.0
1842	6.99015e+02	1.84200e+03	-0.0241269	700.0
1843	6.99094e+02	1.84300e+03	-0.0241082	700.0
1844	6.99175e+02	1.84400e+03	-0.0240842	700.0
1845	6.99255e+02	1.84500e+03	-0.0240609	700.0
1846	6.99275e+02	1.84600e+03	-0.0240389	700.0
1847	6.99303e+02	1.84700e+03	-0.024019	700.0
1848	6.99355e+02	1.84800e+03	-0.0240027	700.0
1849	6.99402e+02	1.84900e+03	-0.0239876	700.0
1850	6.99454e+02	1.85000e+03	-0.0239734	700.0
1851	6.99518e+02	1.85100e+03	-0.0239597	700.0
1852	6.99577e+02	1.85200e+03	-0.0239607	700.0
1853	6.99630e+02	1.85300e+03	-0.0239603	700.0
1854	6.99673e+02	1.85400e+03	-0.0239597	700.0
1855	6.99703e+02	1.85500e+03	-0.0239591	700.0
1856	6.99735e+02	1.85600e+03	-0.0239637	700.0
1857	6.99792e+02	1.85700e+03	-0.0239628	700.0
1858	6.99842e+02	1.85800e+03	-0.0239611	700.0
1859	6.99888e+02	1.85900e+03	-0.0239611	700.0
1860	6.99958e+02	1.86000e+03	-0.0239629	700.0
1861	6.99984e+02	1.86100e+03	-0.0239691	700.0
1862	7.00039e+02	1.86200e+03	-0.02398	700.0
1863	7.00093e+02	1.86300e+03	-0.0239943	700.0
1864	7.00150e+02	1.86400e+03	-0.0240205	700.0
1865	7.00192e+02	1.86500e+03	-0.024038	700.0
1866	7.00232e+02	1.86600e+03	-0.0240513	700.0
1867	7.00279e+02	1.86700e+03	-0.0240623	700.0
1868	7.00312e+02	1.86800e+03	-0.0240634	700.0
1869	7.00346e+02	1.86900e+03	-0.0240621	700.0
1870	7.00384e+02	1.87000e+03	-0.0240572	700.0
1871	7.00416e+02	1.87100e+03	-0.0240499	700.0
1872	7.00448e+02	1.87200e+03	-0.0240266	700.0
1873	7.00488e+02	1.87300e+03	-0.0240105	700.0
1874	7.00519e+02	1.87400e+03	-0.0239954	700.0
1875	7.00555e+02	1.87500e+03	-0.0239803	700.0
1876	7.00587e+02	1.87600e+03	-0.0239661	700.0
1877	7.00623e+02	1.87700e+03	-0.0239541	700.0
1878	7.00654e+02	1.87800e+03	-0.0239437	700.0
1879	7.00693e+02	1.87900e+03	-0.0239343	700.0
1880	7.00711e+02	1.88000e+03	-0.0239315	700.0
1881	7.00742e+02	1.88100e+03	-0.0239269	700.0
1882	7.00771e+02	1.88200e+03	-0.0239228	700.0
1883	7.00813e+02	1.88300e+03	-0.0239193	700.0
1884	7.00837e+02	1.88400e+03	-0.0239251	700.0
1885	7.00869e+02	1.88500e+03	-0.0239331	700.0
1886	7.00899e+02	1.88600e+03	-0.0239426	700.0
1887	7.00921e+02	1.88700e+03	-0.0239529	700.0
1888	7.00950e+02	1.88800e+03	-0.0239726	700.0
1889	7.00970e+02	1.88900e+03	-0.023987	700.0
1890	7.01005e+02	1.89000e+03	-0.0240002	700.0
1891	7.01029e+02	1.89100e+03	-0.0240133	700.0
1892	7.01049e+02	1.89200e+03	-0.0240252	700.0
1893	7.01063e+02	1.89300e+03	-0.0240378	700.0
1894	7.01099e+02	1.89400e+03	-0.02405	700.0
1895	7.01127e+02	1.89500e+03	-0.024062	700.0
1896	7.01150e+02	1.89600e+03	-0.0240658	700.0
1897	7.01173e+02	1.89700e+03	-0.0240655	700.0
1898	7.01179e+02	1.89800e+03	-0.0240629	700.0
1899	7.01225e+02	1.89900e+03	-0.0240594	700.0
1900	7.01242e+02	1.90000e+03	-0.0240441	700.0
1901	7.01252e+02	1.90100e+03	-0.024036	700.0
1902	7.01276e+02	1.90200e+03	-0.02403	700.0
1903	7.01293e+02	1.90300e+03	-0.0240247	700.0
1904	7.01316e+02	1.90400e+03	-0.0240248	700.0
1905	7.01337e+02	1.90500e+03	-0.0240255	700.0
1906	7.01346e+02	1.90600e+03	-0.0240286	700.0
1907	7.01372e+02	1.90700e+03	-0.0240336	700.0
1908	7.01377e+02	1.90800e+03	-0.0240506	700.0
1909	7.01397e+02	1.90900e+03	-0.0240706	700.0
1910	7.01416e+02	1.91000e+03	-0.0240954	700.0
1911	7.01434e+02	1.91100e+03	-0.024122	700.0
1912	7.01445e+02	1.91200e+03	-0.0241599	700.0
1913	7.01452e+02	1.91300e+03	-0.0241895	700.0
1914	7.01467e+02	1.91400e+03	-0.0242158	700.0
1915	7.01471e+02	1.91500e+03	-0.0242405	700.0
1916	7.01481e+02	1.91600e+03	-0.0242552	700.0
1917	7.01498e+02	1.91700e+03	-0.0242653	700.0
1918	7.01513e+02	1.91800e+03	-0.0242679	700.0
1919	7.01523e+02	1.91900e+03	-0.024266	700.0
1920	7.01529e+02	1.92000e+03	-0.0242447	700.0
1921	7.01544e+02	1.92100e+03	-0.02423	700.0
1922	7.01557e+02	1.92200e+03	-0.0242155	700.0
1923	7.01571e+02	1.92300e+03	-0.0242006	700.0
1924	7.01579e+02	1.92400e+03	-0.0241793	700.0
1925	7.01577e+02	1.92500e+03	-0.0241628	700.0
1926	7.01588e+02	1.92600e+03	-0.0241475	700.0
1927	7.01598e+02	1.92700e+03	-0.0241326	700.0
1928	7.01603e+02	1.92800e+03	-0.0241213	700.0
1929	7.01615e+02	1.92900e+03	-0.0241081	700.0
1930	7.01624e+02	1.93000e+03	-0.0240949	700.0
1931	7.01639e+02	1.93100e+03	-0.024082	700.0
1932	7.01639e+02	1.93200e+03	-0.0240702	700.0
1933	7.01648e+02	1.93300e+03	-0.0240594	700.0
1934	7.01660e+02	1.93400e+03	-0.0240497	700.0
1935	7.01665e+02	1.93500e+03	-0.0240406	700.0
1936	7.01678e+02	1.93600e+03	-0.0240348	700.0
1937	7.01688e+02	1.93700e+03	-0.0240243	700.0
1938	7.01693e+02	1.93800e+03	-0.0240114	700.0
1939	7.01702e+02	1.93900e+03	-0.0239992	700.0
1940	7.01711e+02	1.94000e+03	-0.0239902	700.0
1941	7.01726e+02	1.94100e+03	-0.0239852	700.0
1942	7.01723e+02	1.94200e+03	-0.0239839	700.0
1943	7.01736e+02	1.94300e+03	-0.0239851	700.0
1944	7.01745e+02	1.94400e+03	-0.0239998	700.0
1945	7.01758e+02	1.94500e+03	-0.0240119	700.0
1946	7.01758e+02	1.94600e+03	-0.0240256	700.0
1947	7.01760e+02	1.94700e+03	-0.0240409	700.0
1948	7.01778e+02	1.94800e+03	-0.0240642	700.0
1949	7.01781e+02	1.94900e+03	-0.0240831	700.0
1950	7.01792e+02	1.95000e+03	-0.0241009	700.0
1951	7.01797e+02	1.95100e+03	-0.0241182	700.0
1952	7.01802e+02	1.95200e+03	-0.024132	700.0
1953	7.01811e+02	1.95300e+03	-0.0241442	700.0
1954	7.01812e+02	1.95400e+03	-0.0241552	700.0
1955	7.01828e+02	1.95500e+03	-0.0241667	700.0
1956	7.01829e+02	1.95600e+03	-0.0241773	700.0
1957	7.01827e+02	1.95700e+03	-0.0241908	700.0
1958	7.01830e+02	1.95800e+03	-0.0242056	700.0
1959	7.01845e+02	1.95900e+03	-0.0242226	700.0
1960	7.01845e+02	1.96000e+03	-0.024252	700.0
1961	7.01854e+02	1.96100e+03	-0.0242769	700.0
1962	7.01856e+02	1.96200e+03	-0.0242976	700.0
1963	7.01871e+02	1.96300e+03	-0.0243145	700.0
1964	7.01868e+02	1.96400e+03	-0.0243272	700.0
1965	7.01871e+02	1.96500e+03	-0.0243338	700.0
1966	7.01876e+02	1.96600e+03	-0.0243341	700.0
1967	7.01873e+02	1.96700e+03	-0.0243306	700.0
1968	7.01876e+02	1.96800e+03	-0.0243059	700.0
1969	7.01898e+02	1.96900e+03	-0.0242889	700.0
1970	7.01895e+02	1.97000e+03	-0.0242728	700.0
1971	7.01890e+02	1.97100e+03	-0.0242576	700.0
1972	7.01891e+02	1.97200e+03	-0.0242432	700.0
1973	7.01908e+02	1.97300e+03	-0.0242341	700.0
1974	7.01909e+02	1.97400e+03	-0.0242289	700.0
1975	7.01908e+02	1.97500e+03	-0.024226	700.0
1976	7.01909e+02	1.97600e+03	-0.0242367	700.0
1977	7.01918e+02	1.97700e+03	-0.0242428	700.0
1978	7.01919e+02	1.97800e+03	-0.0242484	700.0
1979	7.01930e+02	1.97900e+03	-0.0242541	700.0
1980	7.01927e+02	1.98000e+03	-0.0242611	700.0
1981	7.01931e+02	1.98100e+03	-0.0242642	700.0
1982	7.01936e+02	1.98200e+03	-0.0242653	700.0
1983	7.01938e+02	1.98300e+03	-0.0242654	700.0
1984	7.01946e+02	1.98400e+03	-0.0242594	700.0
1985	7.01952e+02	1.98500e+03	-0.0242572	700.0
1986	7.01953e+02	1.98600e+03	-0.0242564	700.0
1987	7.01948e+02	1.98700e+03	-0.0242564	700.0
1988	7.01962e+02	1.98800e+03	-0.0242571	700.0
1989	7.01967e+02	1.98900e+03	-0.024256	700.0
1990	7.01965e+02	1.99000e+03	-0.0242557	700.0
1991	7.01969e+02	1.99100e+03	-0.0242569	700.0
1992	7.01966e+02	1.99200e+03	-0.0242628	700.0
1993	7.01970e+02	1.99300e+03	-0.0242702	700.0
1994	7.01973e+02	1.99400e+03	-0.024279	700.0
1995	7.01969e+02	1.99500e+03	-0.0242885	700.0
1996	7.01980e+02	1.99600e+03	-0.0243033	700.0
1997	7.01976e+02	1.99700e+03	-0.0243129	700.0
1998	7.01983e+02	1.99800e+03	-0.0243205	700.0
1999	7.01986e+02	1.99900e+03	-0.0243271	700.0
2000	7.01984e+02	2.00000e+03	-0.0243228	700.0
2001	7.01992e+02	2.00100e+03	-0.024316	700.0
2002	7.01991e+02	2.00200e+03	-0.0243062	700.0
2003	7.01988e+02	2.00300e+03	-0.0242953	700.0
2004	7.01991e+02	2.00400e+03	-0.0242686	700.0
2005	7.01994e+02	2.00500e+03	-0.0242457	700.0
2006	7.02000e+02	2.00600e+03	-0.0242243	700.0
2007	7.01985e+02	2.00700e+03	-0.0242041	700.0
2008	7.01996e+02	2.00800e+03	-0.0241847	700.0
2009	7.01994e+02	2.00900e+03	-0.0241712	700.0
2010	7.02002e+02	2.01000e+03	-0.024162	700.0
2011	7.02001e+02	2.01100e+03	-0.0241553	700.0
2012	7.02010e+02	2.01200e+03	-0.0241643	700.0
2013	7.02006e+02	2.01300e+03	-0.0241687	700.0
2014	7.02007e+02	2.01400e+03	-0.0241744	700.0
2015	7.02009e+02	2.01500e+03	-0.0241818	700.0
2016	7.02011e+02	2.01600e+03	-0.0241982	700.0
2017	7.02008e+02	2.01700e+03	-0.0242129	700.0
2018	7.01998e+02	2.01800e+03	-0.0242285	700.0
2019	7.02004e+02	2.01900e+03	-0.0242451	700.0
2020	7.02018e+02	2.02000e+03	-0.0242651	700.0
2021	7.02023e+02	2.02100e+03	-0.0242772	700.0
2022	7.02026e+02	2.02200e+03	-0.0242836	700.0
2023	7.02027e+02	2.02300e+03	-0.0242881	700.0
2024	7.02015e+02	2.02400e+03	-0.0242813	700.0
2025	7.02016e+02	2.02500e+03	-0.0242764	700.0
2026	7.02026e+02	2.02600e+03	-0.0242707	700.0
2027	7.02031e+02	2.02700e+03	-0.0242643	700.0
2028	7.02032e+02	2.02800e+03	-0.0242511	700.0
2029	7.02023e+02	2.02900e+03	-0.0242434	700.0
2030	7.02032e+02	2.03000e+03	-0.0242383	700.0
2031	7.02039e+02	2.03100e+03	-0.0242345	700.0
2032	7.02030e+02	2.03200e+03	-0.0242393	700.0
2033	7.02037e+02	2.03300e+03	-0.0242444	700.0
2034	7.02025e+02	2.03400e+03	-0.0242519	700.0
2035	7.02041e+02	2.03500e+03	-0.0242613	700.0
2036	7.02030e+02	2.03600e+03	-0.0242815	700.0
2037	7.02037e+02	2.03700e+03	-0.0242981	700.0
2038	7.02049e+02	2.03800e+03	-0.0243146	700.0
2039	7.02038e+02	2.03900e+03	-0.0243314	700.0
2040	7.02048e+02	2.04000e+03	-0.0243507	700.0
2041	7.02045e+02	2.04100e+03	-0.0243676	700.0
2042	7.02040e+02	2.04200e+03	-0.0243836	700.0
2043	7.02039e+02	2.04300e+03	-0.0243992	700.0
2044	7.02044e+02	2.04400e+03	-0.0244043	700.0
2045	7.02044e+02	2.04500e+03	-0.024406	700.0
2046	7.02044e+02	2.04600e+03	-0.0244052	700.0
2047	7.02042e+02	2.04700e+03	-0.0244028	700.0
2048	7.02048e+02	2.04800e+03	-0.024386	700.0
2049	7.02051e+02	2.04900e+03	-0.0243755	700.0
2050	7.02055e+02	2.05000e+03	-0.024366	700.0
2051	7.02052e+02	2.05100e+03	-0.0243565	700.0
2052	7.02062e+02	2.05200e+03	-0.0243473	700.0
2053	7.02053e+02	2.05300e+03	-0.0243401	700.0
2054	7.02053e+02	2.05400e+03	-0.0243349	700.0
2055	7.02059e+02	2.05500e+03	-0.0243311	700.0
2056	7.02062e+02	2.05600e+03	-0.0243359	700.0
2057	7.02063e+02	2.05700e+03	-0.0243411	700.0
2058	7.02063e+02	2.05800e+03	-0.0243486	700.0
2059	7.02062e+02	2.05900e+03	-0.024358	700.0
2060	7.02064e+02	2.06000e+03	-0.024376	700.0
2061	7.02060e+02	2.06100e+03	-0.0243863	700.0
2062	7.02063e+02	2.06200e+03	-0.0243931	700.0
2063	7.02066e+02	2.06300e+03	-0.0243994	700.0
2064	7.02070e+02	2.06400e+03	-0.0244016	700.0
2065	7.02071e+02	2.06500e+03	-0.0244045	700.0
2066	7.02066e+02	2.06600e+03	-0.0244072	700.0
2067	7.02073e+02	2.06700e+03	-0.0244096	700.0
2068	7.02068e+02	2.06800e+03	-0.0244087	700.0
2069	7.02070e+02	2.06900e+03	-0.0244102	700.0
2070	7.02071e+02	2.07000e+03	-0.024413	700.0
2071	7.02066e+02	2.07100e+03	-0.0244165	700.0
2072	7.02063e+02	2.07200e+03	-0.0244249	700.0
2073	7.02068e+02	2.07300e+03	-0.0244347	700.0
2074	7.02069e+02	2.07400e+03	-0.0244473	700.0
2075	7.02076e+02	2.07500e+03	-0.0244618	700.0
2076	7.02077e+02	2.07600e+03	-0.0244872	700.0
2077	7.02076e+02	2.07700e+03	-0.0245104	700.0
2078	7.02078e+02	2.07800e+03	-0.0245342	700.0
2079	7.02071e+02	2.07900e+03	-0.0245586	700.0
2080	7.02076e+02	2.08000e+03	-0.0245857	700.0
2081	7.02078e+02	2.08100e+03	-0.0246051	700.0
2082	7.02075e+02	2.08200e+03	-0.0246166	700.0
2083	7.02076e+02	2.08300e+03	-0.0246229	700.0
2084	7.02082e+02	2.08400e+03	-0.0246111	700.0
2085	7.02075e+02	2.08500e+03	-0.0246014	700.0
2086	7.02081e+02	2.08600e+03	-0.024589	700.0
2087	7.02087e+02	2.08700e+03	-0.0245742	700.0
2088	7.02078e+02	2.08800e+03	-0.024542	700.0
2089	7.02073e+02	2.08900e+03	-0.024518	700.0
2090	7.02075e+02	2.09000e+03	-0.0244961	700.0
2091	7.02075e+02	2.09100e+03	-0.0244748	700.0
2092	7.02074e+02	2.09200e+03	-0.0244582	700.0
2093	7.02072e+02	2.09300e+03	-0.0244449	700.0
2094	7.02082e+02	2.09400e+03	-0.0244353	700.0
2095	7.02089e+02	2.09500e+03	-0.0244283	700.0
2096	7.02081e+02	2.09600e+03	-0.0244366	700.0
2097	7.02084e+02	2.09700e+03	-0.0244415	700.0
2098	7.02085e+02	2.09800e+03	-0.0244476	700.0
2099	7.02080e+02	2.09900e+03	-0.0244548	700.0
2100	7.02091e+02	2.10000e+03	-0.0244693	700.0
2101	7.02082e+02	2.10100e+03	-0.0244788	700.0
2102	7.02081e+02	2.10200e+03	-0.0244871	700.0
2103	7.02080e+02	2.10300e+03	-0.0244949	700.0
2104	7.02086e+02	2.10400e+03	-0.0245007	700.0
2105	7.02088e+02	2.10500e+03	-0.0245072	700.0
2106	7.02091e+02	2.10600e+03	-0.0245109	700.0
2107	7.02080e+02	2.10700e+03	-0.0245122	700.0
2108	7.02092e+02	2.10800e+03	-0.0245142	700.0
2109	7.02093e+02	2.10900e+03	-0.0245191	700.0
2110	7.02089e+02	2.11000e+03	-0.0245266	700.0
2111	7.02099e+02	2.11100e+03	-0.0245362	700.0
2112	7.02089e+02	2.11200e+03	-0.0245531	700.0
2113	7.02098e+02	2.11300e+03	-0.0245712	700.0
2114	7.02094e+02	2.11400e+03	-0.0245915	700.0
2115	7.02092e+02	2.11500e+03	-0.0246133	700.0
2116	7.02096e+02	2.11600e+03	-0.0246444	700.0
2117	7.02098e+02	2.11700e+03	-0.0246694	700.0
2118	7.02093e+02	2.11800e+03	-0.0246918	700.0
2119	7.02093e+02	2.11900e+03	-0.0247127	700.0
2120	7.02095e+02	2.12000e+03	-0.0247254	700.0
2121	7.02095e+02	2.12100e+03	-0.024736	700.0
2122	7.02103e+02	2.12200e+03	-0.0247428	700.0
2123	7.02092e+02	2.12300e+03	-0.024747	700.0
2124	7.02103e+02	2.12400e+03	-0.0247354	700.0
2125	7.02099e+02	2.12500e+03	-0.0247282	700.0
2126	7.02094e+02	2.12600e+03	-0.0247204	700.0
2127	7.02089e+02	2.12700e+03	-0.0247118	700.0
2128	7.02100e+02	2.12800e+03	-0.0246984	700.0
2129	7.02108e+02	2.12900e+03	-0.0246891	700.0
2130	7.02096e+02	2.13000e+03	-0.0246797	700.0
2131	7.02096e+02	2.13100e+03	-0.0246683	700.0
2132	7.02093e+02	2.13200e+03	-0.0246577	700.0
2133	7.02089e+02	2.13300e+03	-0.0246473	700.0
2134	7.02092e+02	2.13400e+03	-0.0246382	700.0
2135	7.02099e+02	2.13500e+03	-0.0246304	700.0
2136	7.02095e+02	2.13600e+03	-0.0246246	700.0
2137	7.02093e+02	2.13700e+03	-0.0246221	700.0
2138	7.02092e+02	2.13800e+03	-0.0246223	700.0
2139	7.02086e+02	2.13900e+03	-0.0246242	700.0
2140	7.02089e+02	2.14000e+03	-0.0246306	700.0
2141	7.02089e+02	2.14100e+03	-0.0246301	700.0
2142	7.02087e+02	2.14200e+03	-0.0246285	700.0
2143	7.02096e+02	2.14300e+03	-0.0246272	700.0
2144	7.02090e+02	2.14400e+03	-0.024622	700.0
2145	7.02088e+02	2.14500e+03	-0.0246213	700.0
2146	7.02094e+02	2.14600e+03	-0.024623	700.0
2147	7.02096e+02	2.14700e+03	-0.0246259	700.0
2148	7.02093e+02	2.14800e+03	-0.024636	700.0
2149	7.02093e+02	2.14900e+03	-0.0246444	700.0
2150	7.02100e+02	2.15000e+03	-0.0246531	700.0
2151	7.02093e+02	2.15100e+03	-0.0246622	700.0
2152	7.02095e+02	2.15200e+03	-0.0246738	700.0
2153	7.02094e+02	2.15300e+03	-0.0246826	700.0
2154	7.02096e+02	2.15400e+03	-0.0246903	700.0
2155	7.02100e+02	2.15500e+03	-0.0246973	700.0
2156	7.02089e+02	2.15600e+03	-0.0247004	700.0
2157	7.02101e+02	2.15700e+03	-0.0247043	700.0
2158	7.02108e+02	2.15800e+03	-0.0247077	700.0
2159	7.02102e+02	2.15900e+03	-0.0247107	700.0
2160	7.02092e+02	2.16000e+03	-0.0247116	700.0
2161	7.02104e+02	2.16100e+03	-0.0247141	700.0
2162	7.02094e+02	2.16200e+03	-0.0247176	700.0
2163	7.02101e+02	2.16300e+03	-0.0247217	700.0
2164	7.02103e+02	2.16400e+03	-0.0247282	700.0
2165	7.02107e+02	2.16500e+03	-0.0247328	700.0
2166	7.02099e+02	2.16600e+03	-0.0247337	700.0
2167	7.02111e+02	2.16700e+03	-0.0247323	700.0
2168	7.02108e+02	2.16800e+03	-0.0247301	700.0
2169	7.02105e+02	2.16900e+03	-0.0247286	700.0
2170	7.02102e+02	2.17000e+03	-0.0247272	700.0
2171	7.02108e+02	2.17100e+03	-0.0247247	700.0
2172	7.02105e+02	2.17200e+03	-0.0247155	700.0
2173	7.02102e+02	2.17300e+03	-0.0247085	700.0
2174	7.02100e+02	2.17400e+03	-0.0247031	700.0
2175	7.02106e+02	2.17500e+03	-0.0246986	700.0
2176	7.02102e+02	2.17600e+03	-0.0246948	700.0
2177	7.02097e+02	2.17700e+03	-0.0246948	700.0
2178	7.02099e+02	2.17800e+03	-0.024698	700.0
2179	7.02099e+02	2.17900e+03	-0.0247033	700.0
2180	7.02102e+02	2.18000e+03	-0.0247203	700.0
2181	7.02102e+02	2.18100e+03	-0.0247342	700.0
2182	7.02099e+02	2.18200e+03	-0.0247484	700.0
2183	7.02106e+02	2.18300e+03	-0.0247629	700.0
2184	7.02099e+02	2.18400e+03	-0.0247808	700.0
2185	7.02094e+02	2.18500e+03	-0.0247944	700.0
2186	7.02099e+02	2.18600e+03	-0.0248057	700.0
2187	7.02099e+02	2.18700e+03	-0.0248159	700.0
2188	7.02099e+02	2.18800e+03	-0.0248181	700.0
2189	7.02097e+02	2.18900e+03	-0.0248216	700.0
2190	7.02103e+02	2.19000e+03	-0.0248236	700.0
2191	7.02100e+02	2.19100e+03	-0.0248244	700.0
2192	7.02100e+02	2.19200e+03	-0.0248178	700.0
2193	7.02099e+02	2.19300e+03	-0.0248129	700.0
2194	7.02099e+02	2.19400e+03	-0.0248074	700.0
2195	7.02107e+02	2.19500e+03	-0.0248013	700.0
2196	7.02102e+02	2.19600e+03	-0.0247922	700.0
2197	7.02105e+02	2.19700e+03	-0.0247856	700.0
2198	7.02113e+02	2.19800e+03	-0.0247805	700.0
2199	7.02107e+02	2.19900e+03	-0.0247762	700.0
2200	7.02111e+02	2.20000e+03	-0.0247776	700.0
2201	7.02104e+02	2.20100e+03	-0.0247802	700.0
2202	7.02102e+02	2.20200e+03	-0.0247852	700.0
2203	7.02100e+02	2.20300e+03	-0.0247919	700.0
2204	7.02097e+02	2.20400e+03	-0.0248094	700.0
2205	7.02104e+02	2.20500e+03	-0.0248246	700.0
2206	7.02101e+02	2.20600e+03	-0.0248408	700.0
2207	7.02104e+02	2.20700e+03	-0.0248579	700.0
2208	7.02106e+02	2.20800e+03	-0.0248797	700.0
2209	7.02115e+02	2.20900e+03	-0.0248974	700.0
2210	7.02108e+02	2.21000e+03	-0.0249129	700.0
2211	7.02109e+02	2.21100e+03	-0.0249271	700.0
2212	7.02106e+02	2.21200e+03	-0.0249335	700.0
2213	7.02112e+02	2.21300e+03	-0.0249386	700.0
2214	7.02115e+02	2.21400e+03	-0.0249393	700.0
2215	7.02109e+02	2.21500e+03	-0.0249355	700.0
2216	7.02116e+02	2.21600e+03	-0.0249152	700.0
2217	7.02120e+02	2.21700e+03	-0.0248976	700.0
2218	7.02112e+02	2.21800e+03	-0.024877	700.0
2219	7.02107e+02	2.21900e+03	-0.0248545	700.0
2220	7.02115e+02	2.22000e+03	-0.0248256	700.0
2221	7.02111e+02	2.22100e+03	-0.0248068	700.0
2222	7.02104e+02	2.22200e+03	-0.0247939	700.0
2223	7.02118e+02	2.22300e+03	-0.0247844	700.0
2224	7.02116e+02	2.22400e+03	-0.0247929	700.0
2225	7.02112e+02	2.22500e+03	-0.0247988	700.0
2226	7.02117e+02	2.22600e+03	-0.0248068	700.0
2227	7.02114e+02	2.22700e+03	-0.0248168	700.0
2228	7.02116e+02	2.22800e+03	-0.0248376	700.0
2229	7.02110e+02	2.22900e+03	-0.0248475	700.0
2230	7.02112e+02	2.23000e+03	-0.0248515	700.0
2231	7.02118e+02	2.23100e+03	-0.0248532	700.0
2232	7.02119e+02	2.23200e+03	-0.0248458	700.0
2233	7.02114e+02	2.23300e+03	-0.0248416	700.0
2234	7.02113e+02	2.23400e+03	-0.0248377	700.0
2235	7.02123e+02	2.23500e+03	-0.0248336	700.0
2236	7.02117e+02	2.23600e+03	-0.0248263	700.0
2237	7.02112e+02	2.23700e+03	-0.024822	700.0
2238	7.02114e+02	2.23800e+03	-0.0248187	700.0
2239	7.02119e+02	2.23900e+03	-0.0248156	700.0
2240	7.02117e+02	2.24000e+03	-0.0248143	700.0
2241	7.02120e+02	2.24100e+03	-0.0248096	700.0
2242	7.02118e+02	2.24200e+03	-0.0248006	700.0
2243	7.02117e+02	2.24300e+03	-0.0247872	700.0
2244	7.02114e+02	2.24400e+03	-0.0247602	700.0
2245	7.02119e+02	2.24500e+03	-0.0247342	700.0
2246	7.02123e+02	2.24600e+03	-0.0247078	700.0
2247	7.02117e+02	2.24700e+03	-0.0246811	700.0
2248	7.02119e+02	2.24800e+03	-0.0246462	700.0
2249	7.02127e+02	2.24900e+03	-0.0246221	700.0
2250	7.02120e+02	2.25000e+03	-0.0246031	700.0
2251	7.02118e+02	2.25100e+03	-0.0245868	700.0
2252	7.02124e+02	2.25200e+03	-0.0245906	700.0
2253	7.02128e+02	2.25300e+03	-0.0245923	700.0
2254	7.02120e+02	2.25400e+03	-0.0245992	700.0
2255	7.02121e+02	2.25500e+03	-0.0246105	700.0
2256	7.02130e+02	2.25600e+03	-0.0246436	700.0
2257	7.02126e+02	2.25700e+03	-0.0246721	700.0
2258	7.02122e+02	2.25800e+03	-0.0247014	700.0
2259	7.02124e+02	2.25900e+03	-0.0247318	700.0
2260	7.02133e+02	2.26000e+03	-0.0247766	700.0
2261	7.02122e+02	2.26100e+03	-0.0248189	700.0
2262	7.02114e+02	2.26200e+03	-0.0248662	700.0
2263	7.02125e+02	2.26300e+03	-0.0249179	700.0
2264	7.02123e+02	2.26400e+03	-0.0249831	700.0
2265	7.02126e+02	2.26500e+03	-0.0250436	700.0
2266	7.02119e+02	2.26600e+03	-0.0250974	700.0
2267	7.02128e+02	2.26700e+03	-0.0251451	700.0
2268	7.02119e+02	2.26800e+03	-0.0251649	700.0
2269	7.02115e+02	2.26900e+03	-0.0251621	700.0
2270	7.02127e+02	2.27000e+03	-0.0251383	700.0
2271	7.02122e+02	2.27100e+03	-0.0251012	700.0
2272	7.02118e+02	2.27200e+03	-0.0249801	700.0
2273	7.02116e+02	2.27300e+03	-0.0248892	700.0
2274	7.02113e+02	2.27400e+03	-0.0248013	700.0
2275	7.02120e+02	2.27500e+03	-0.0247126	700.0
2276	7.02125e+02	2.27600e+03	-0.0246207	700.0
2277	7.02116e+02	2.27700e+03	-0.0245519	700.0
2278	7.02120e+02	2.27800e+03	-0.024498	700.0
2279	7.02124e+02	2.27900e+03	-0.0244531	700.0
2280	7.02124e+02	2.28000e+03	-0.0244651	700.0
2281	7.02121e+02	2.28100e+03	-0.0244647	700.0
2282	7.02122e+02	2.28200e+03	-0.0244696	700.0
2283	7.02120e+02	2.28300e+03	-0.0244802	700.0
2284	7.02124e+02	2.28400e+03	-0.0245247	700.0
2285	7.02116e+02	2.28500e+03	-0.0245558	700.0
2286	7.02129e+02	2.28600e+03	-0.0245864	700.0
2287	7.02119e+02	2.28700e+03	-0.0246186	700.0
2288	7.02136e+02	2.28800e+03	-0.0246575	700.0
2289	7.02130e+02	2.28900e+03	-0.0246937	700.0
2290	7.02126e+02	2.29000e+03	-0.0247295	700.0
2291	7.02123e+02	2.29100e+03	-0.0247653	700.0
2292	7.02123e+02	2.29200e+03	-0.0248008	700.0
2293	7.02129e+02	2.29300e+03	-0.0248346	700.0
2294	7.02127e+02	2.29400e+03	-0.0248664	700.0
2295	7.02129e+02	2.29500e+03	-0.024897	700.0
2296	7.02134e+02	2.29600e+03	-0.0249196	700.0
2297	7.02126e+02	2.29700e+03	-0.0249413	700.0
2298	7.02128e+02	2.29800e+03	-0.0249605	700.0
2299	7.02128e+02	2.29900e+03	-0.0249778	700.0
2300	7.02131e+02	2.30000e+03	-0.0249832	700.0
2301	7.02136e+02	2.30100e+03	-0.0249918	700.0
2302	7.02127e+02	2.30200e+03	-0.0249995	700.0
2303	7.02132e+02	2.30300e+03	-0.0250061	700.0
2304	7.02132e+02	2.30400e+03	-0.025006	700.0
2305	7.02124e+02	2.30500e+03	-0.0250058	700.0
2306	7.02129e+02	2.30600e+03	-0.025001	700.0
2307	7.02131e+02	2.30700e+03	-0.0249932	700.0
2308	7.02131e+02	2.30800e+03	-0.0249791	700.0
2309	7.02130e+02	2.30900e+03	-0.024968	700.0
2310	7.02130e+02	2.31000e+03	-0.0249578	700.0
2311	7.02138e+02	2.31100e+03	-0.024948	700.0
2312	7.02128e+02	2.31200e+03	-0.0249378	700.0
2313	7.02125e+02	2.31300e+03	-0.024931	700.0
2314	7.02135e+02	2.31400e+03	-0.0249258	700.0
2315	7.02126e+02	2.31500e+03	-0.0249206	700.0
2316	7.02130e+02	2.31600e+03	-0.0249174	700.0
2317	7.02126e+02	2.31700e+03	-0.0249118	700.0
2318	7.02124e+02	2.31800e+03	-0.0249075	700.0
2319	7.02130e+02	2.31900e+03	-0.0249049	700.0
2320	7.02131e+02	2.32000e+03	-0.0249036	700.0
2321	7.02124e+02	2.32100e+03	-0.0249065	700.0
2322	7.02134e+02	2.32200e+03	-0.0249125	700.0
2323	7.02135e+02	2.32300e+03	-0.0249206	700.0
2324	7.02133e+02	2.32400e+03	-0.0249451	700.0
2325	7.02134e+02	2.32500e+03	-0.0249658	700.0
2326	7.02139e+02	2.32600e+03	-0.0249849	700.0
2327	7.02141e+02	2.32700e+03	-0.0250031	700.0
2328	7.02135e+02	2.32800e+03	-0.0250221	700.0
2329	7.02138e+02	2.32900e+03	-0.0250341	700.0
2330	7.02139e+02	2.33000e+03	-0.0250421	700.0
2331	7.02135e+02	2.33100e+03	-0.0250479	700.0
2332	7.02134e+02	2.33200e+03	-0.0250381	700.0
2333	7.02140e+02	2.33300e+03	-0.0250304	700.0
2334	7.02142e+02	2.33400e+03	-0.0250192	700.0
2335	7.02134e+02	2.33500e+03	-0.0250061	700.0
2336	7.02137e+02	2.33600e+03	-0.0249866	700.0
2337	7.02137e+02	2.33700e+03	-0.0249718	700.0
2338	7.02132e+02	2.33800e+03	-0.0249588	700.0
2339	7.02134e+02	2.33900e+03	-0.0249468	700.0
2340	7.02134e+02	2.34000e+03	-0.0249383	700.0
2341	7.02125e+02	2.34100e+03	-0.0249306	700.0
2342	7.02133e+02	2.34200e+03	-0.0249243	700.0
2343	7.02136e+02	2.34300e+03	-0.024919	700.0
2344	7.02137e+02	2.34400e+03	-0.0249201	700.0
2345	7.02131e+02	2.34500e+03	-0.0249197	700.0
2346	7.02128e+02	2.34600e+03	-0.0249202	700.0
2347	7.02134e+02	2.34700e+03	-0.0249219	700.0
2348	7.02138e+02	2.34800e+03	-0.0249285	700.0
2349	7.02137e+02	2.34900e+03	-0.0249347	700.0
2350	7.02126e+02	2.35000e+03	-0.0249417	700.0
2351	7.02131e+02	2.35100e+03	-0.0249493	700.0
2352	7.02131e+02	2.35200e+03	-0.0249617	700.0
2353	7.02130e+02	2.35300e+03	-0.0249726	700.0
2354	7.02126e+02	2.35400e+03	-0.0249838	700.0
2355	7.02136e+02	2.35500e+03	-0.0249955	700.0
2356	7.02133e+02	2.35600e+03	-0.0250093	700.0
2357	7.02130e+02	2.35700e+03	-0.0250225	700.0
2358	7.02137e+02	2.35800e+03	-0.0250356	700.0
2359	7.02141e+02	2.35900e+03	-0.0250485	700.0
2360	7.02141e+02	2.36000e+03	-0.025061	700.0
2361	7.02135e+02	2.36100e+03	-0.0250721	700.0
2362	7.02138e+02	2.36200e+03	-0.0250825	700.0
2363	7.02143e+02	2.36300e+03	-0.0250925	700.0
2364	7.02132e+02	2.36400e+03	-0.0250997	700.0
2365	7.02135e+02	2.36500e+03	-0.0251082	700.0
2366	7.02143e+02	2.36600e+03	-0.0251155	700.0
2367	7.02145e+02	2.36700e+03	-0.0251205	700.0
2368	7.02144e+02	2.36800e+03	-0.0251167	700.0
2369	7.02137e+02	2.36900e+03	-0.0251109	700.0
2370	7.02142e+02	2.37000e+03	-0.0251037	700.0
2371	7.02141e+02	2.37100e+03	-0.0250957	700.0
2372	7.02135e+02	2.37200e+03	-0.025076	700.0
2373	7.02139e+02	2.37300e+03	-0.0250639	700.0
2374	7.02150e+02	2.37400e+03	-0.0250545	700.0
2375	7.02152e+02	2.37500e+03	-0.0250465	700.0
2376	7.02145e+02	2.37600e+03	-0.0250471	700.0
2377	7.02150e+02	2.37700e+03	-0.0250485	700.0
2378	7.02150e+02	2.37800e+03	-0.0250527	700.0
2379	7.02150e+02	2.37900e+03	-0.025059	700.0
2380	7.02142e+02	2.38000e+03	-0.0250773	700.0
2381	7.02150e+02	2.38100e+03	-0.0250913	700.0
2382	7.02152e+02	2.38200e+03	-0.0251044	700.0
2383	7.02152e+02	2.38300e+03	-0.0251173	700.0
2384	7.02151e+02	2.38400e+03	-0.025123	700.0
2385	7.02144e+02	2.38500e+03	-0.0251214	700.0
2386	7.02147e+02	2.38600e+03	-0.0251161	700.0
2387	7.02152e+02	2.38700e+03	-0.0251091	700.0
2388	7.02142e+02	2.38800e+03	-0.0250848	700.0
2389	7.02156e+02	2.38900e+03	-0.0250703	700.0
2390	7.02156e+02	2.39000e+03	-0.0250579	700.0
2391	7.02147e+02	2.39100e+03	-0.0250459	700.0
2392	7.02151e+02	2.39200e+03	-0.0250365	700.0
2393	7.02162e+02	2.39300e+03	-0.025026	700.0
2394	7.02160e+02	2.39400e+03	-0.0250155	700.0
2395	7.02149e+02	2.39500e+03	-0.0250052	700.0
2396	7.02155e+02	2.39600e+03	-0.0249964	700.0
2397	7.02154e+02	2.39700e+03	-0.0249883	700.0
2398	7.02158e+02	2.39800e+03	-0.0249815	700.0
2399	7.02157e+02	2.39900e+03	-0.0249756	700.0
2400	7.02155e+02	2.40000e+03	-0.0249708	700.0
2401	7.02161e+02	2.40100e+03	-0.0249626	700.0
2402	7.02157e+02	2.40200e+03	-0.0249538	700.0
2403	7.02157e+02	2.40300e+03	-0.0249454	700.0
2404	7.02157e+02	2.40400e+03	-0.0249365	700.0
2405	7.02157e+02	2.40500e+03	-0.0249304	700.0
2406	7.02157e+02	2.40600e+03	-0.0249289	700.0
2407	7.02151e+02	2.40700e+03	-0.0249314	700.0
2408	7.02158e+02	2.40800e+03	-0.0249431	700.0
2409	7.02162e+02	2.40900e+03	-0.0249527	700.0
2410	7.02156e+02	2.41000e+03	-0.0249623	700.0
2411	7.02164e+02	2.41100e+03	-0.024972	700.0
2412	7.02150e+02	2.41200e+03	-0.0249891	700.0
2413	7.02153e+02	2.41300e+03	-0.0250023	700.0
2414	7.02161e+02	2.41400e+03	-0.0250159	700.0
2415	7.02159e+02	2.41500e+03	-0.0250309	700.0
2416	7.02153e+02	2.41600e+03	-0.0250502	700.0
2417	7.02158e+02	2.41700e+03	-0.0250728	700.0
2418	7.02158e+02	2.41800e+03	-0.0250969	700.0
2419	7.02154e+02	2.41900e+03	-0.0251214	700.0
2420	7.02157e+02	2.42000e+03	-0.0251526	700.0
2421	7.02158e+02	2.42100e+03	-0.0251768	700.0
2422	7.02163e+02	2.42200e+03	-0.0251986	700.0
2423	7.02164e+02	2.42300e+03	-0.0252197	700.0
2424	7.02160e+02	2.42400e+03	-0.0252319	700.0
2425	7.02165e+02	2.42500e+03	-0.0252469	700.0
2426	7.02174e+02	2.42600e+03	-0.0252615	700.0
2427	7.02158e+02	2.42700e+03	-0.0252753	700.0
2428	7.02161e+02	2.42800e+03	-0.0252858	700.0
2429	7.02162e+02	2.42900e+03	-0.025297	700.0
2430	7.02170e+02	2.43000e+03	-0.0253073	700.0
2431	7.02159e+02	2.43100e+03	-0.0253167	700.0
2432	7.02168e+02	2.43200e+03	-0.0253212	700.0
2433	7.02167e+02	2.43300e+03	-0.0253252	700.0
2434	7.02165e+02	2.43400e+03	-0.0253278	700.0
2435	7.02161e+02	2.43500e+03	-0.0253294	700.0
2436	7.02158e+02	2.43600e+03	-0.0253251	700.0
2437	7.02164e+02	2.43700e+03	-0.0253236	700.0
2438	7.02161e+02	2.43800e+03	-0.0253229	700.0
2439	7.02155e+02	2.43900e+03	-0.0253223	700.0
2440	7.02161e+02	2.44000e+03	-0.0253246	700.0
2441	7.02155e+02	2.44100e+03	-0.0253288	700.0
2442	7.02156e+02	2.44200e+03	-0.025335	700.0
2443	7.02169e+02	2.44300e+03	-0.0253425	700.0
2444	7.02166e+02	2.44400e+03	-0.0253563	700.0
2445	7.02165e+02	2.44500e+03	-0.0253666	700.0
2446	7.02172e+02	2.44600e+03	-0.0253752	700.0
2447	7.02166e+02	2.44700e+03	-0.0253827	700.0
2448	7.02163e+02	2.44800e+03	-0.0253845	700.0
2449	7.02158e+02	2.44900e+03	-0.0253838	700.0
2450	7.02160e+02	2.45000e+03	-0.02538	700.0
2451	7.02171e+02	2.45100e+03	-0.025373	700.0
2452	7.02165e+02	2.45200e+03	-0.0253498	700.0
2453	7.02169e+02	2.45300e+03	-0.0253321	700.0
2454	7.02166e+02	2.45400e+03	-0.025317	700.0
2455	7.02169e+02	2.45500e+03	-0.0253035	700.0
2456	7.02165e+02	2.45600e+03	-0.0252921	700.0
2457	7.02161e+02	2.45700e+03	-0.0252877	700.0
2458	7.02168e+02	2.45800e+03	-0.0252882	700.0
2459	7.02163e+02	2.45900e+03	-0.0252914	700.0
2460	7.02163e+02	2.46000e+03	-0.0253133	700.0
2461	7.02165e+02	2.46100e+03	-0.0253279	700.0
2462	7.02165e+02	2.46200e+03	-0.0253407	700.0
2463	7.02163e+02	2.46300e+03	-0.0253516	700.0
2464	7.02159e+02	2.46400e+03	-0.0253598	700.0
2465	7.02165e+02	2.46500e+03	-0.0253661	700.0
2466	7.02164e+02	2.46600e+03	-0.0253715	700.0
2467	7.02166e+02	2.46700e+03	-0.0253763	700.0
2468	7.02162e+02	2.46800e+03	-0.0253708	700.0
2469	7.02164e+02	2.46900e+03	-0.0253688	700.0
2470	7.02162e+02	2.47000e+03	-0.0253657	700.0
2471	7.02167e+02	2.47100e+03	-0.0253613	700.0
2472	7.02167e+02	2.47200e+03	-0.0253518	700.0
2473	7.02163e+02	2.47300e+03	-0.0253425	700.0
2474	7.02167e+02	2.47400e+03	-0.0253329	700.0
2475	7.02163e+02	2.47500e+03	-0.0253233	700.0
2476	7.02174e+02	2.47600e+03	-0.025312	700.0
2477	7.02170e+02	2.47700e+03	-0.0253051	700.0
2478	7.02167e+02	2.47800e+03	-0.0253003	700.0
2479	7.02171e+02	2.47900e+03	-0.0252967	700.0
2480	7.02167e+02	2.48000e+03	-0.0253008	700.0
2481	7.02170e+02	2.48100e+03	-0.0253019	700.0
2482	7.02163e+02	2.48200e+03	-0.025303	700.0
2483	7.02164e+02	2.48300e+03	-0.0253044	700.0
2484	7.02167e+02	2.48400e+03	-0.0253072	700.0
2485	7.02168e+02	2.48500e+03	-0.025309	700.0
2486	7.02160e+02	2.48600e+03	-0.0253104	700.0
2487	7.02163e+02	2.48700e+03	-0.0253118	700.0
2488	7.02155e+02	2.48800e+03	-0.0253124	700.0
2489	7.02164e+02	2.48900e+03	-0.0253131	700.0
2490	7.02162e+02	2.49000e+03	-0.0253137	700.0
2491	7.02159e+02	2.49100e+03	-0.0253143	700.0
2492	7.02160e+02	2.49200e+03	-0.0253143	700.0
2493	7.02168e+02	2.49300e+03	-0.0253146	700.0
2494	7.02157e+02	2.49400e+03	-0.0253152	700.0
2495	7.02161e+02	2.49500e+03	-0.025316	700.0
2496	7.02160e+02	2.49600e+03	-0.0253187	700.0
2497	7.02170e+02	2.49700e+03	-0.0253223	700.0
2498	7.02171e+02	2.49800e+03	-0.0253268	700.0
2499	7.02170e+02	2.49900e+03	-0.0253318	700.0
2500	7.02166e+02	2.50000e+03	-0.0253399	700.0
2501	7.02164e+02	2.50100e+03	-0.0253458	700.0
2502	7.02171e+02	2.50200e+03	-0.0253506	700.0
2503	7.02168e+02	2.50300e+03	-0.0253546	700.0
2504	7.02167e+02	2.50400e+03	-0.0253553	700.0
2505	7.02166e+02	2.50500e+03	-0.0253562	700.0
2506	7.02166e+02	2.50600e+03	-0.0253576	700.0
2507	7.02165e+02	2.50700e+03	-0.0253597	700.0
2508	7.02161e+02	2.50800e+03	-0.0253629	700.0
2509	7.02161e+02	2.50900e+03	-0.0253697	700.0
2510	7.02165e+02	2.51000e+03	-0.0253782	700.0
2511	7.02167e+02	2.51100e+03	-0.0253875	700.0
2512	7.02161e+02	2.51200e+03	-0.0254035	700.0
2513	7.02165e+02	2.51300e+03	-0.0254145	700.0
2514	7.02171e+02	2.51400e+03	-0.0254234	700.0
2515	7.02165e+02	2.51500e+03	-0.0254314	700.0
2516	7.02168e+02	2.51600e+03	-0.0254331	700.0
2517	7.02155e+02	2.51700e+03	-0.0254336	700.0
2518	7.02164e+02	2.51800e+03	-0.0254283	700.0
2519	7.02173e+02	2.51900e+03	-0.025418	700.0
2520	7.02165e+02	2.52000e+03	-0.0253939	700.0
2521	7.02164e+02	2.52100e+03	-0.0253736	700.0
2522	7.02156e+02	2.52200e+03	-0.0253541	700.0
2523	7.02163e+02	2.52300e+03	-0.0253348	700.0
2524	7.02155e+02	2.52400e+03	-0.0253059	700.0
2525	7.02160e+02	2.52500e+03	-0.0252828	700.0
2526	7.02156e+02	2.52600e+03	-0.0252632	700.0
2527	7.02153e+02	2.52700e+03	-0.0252454	700.0
2528	7.02160e+02	2.52800e+03	-0.0252362	700.0
2529	7.02155e+02	2.52900e+03	-0.0252285	700.0
2530	7.02155e+02	2.53000e+03	-0.0252263	700.0
2531	7.02159e+02	2.53100e+03	-0.0252291	700.0
2532	7.02147e+02	2.53200e+03	-0.0252573	700.0
2533	7.02153e+02	2.53300e+03	-0.0252871	700.0
2534	7.02150e+02	2.53400e+03	-0.0253222	700.0
2535	7.02148e+02	2.53500e+03	-0.0253606	700.0
2536	7.02154e+02	2.53600e+03	-0.0254187	700.0
2537	7.02160e+02	2.53700e+03	-0.0254556	700.0
2538	7.02163e+02	2.53800e+03	-0.0254787	700.0
2539	7.02159e+02	2.53900e+03	-0.0254935	700.0
2540	7.02165e+02	2.54000e+03	-0.0254607	700.0
2541	7.02158e+02	2.54100e+03	-0.0254261	700.0
2542	7.02157e+02	2.54200e+03	-0.0253834	700.0
2543	7.02159e+02	2.54300e+03	-0.0253351	700.0
2544	7.02158e+02	2.54400e+03	-0.0252501	700.0
2545	7.02151e+02	2.54500e+03	-0.0251992	700.0
2546	7.02162e+02	2.54600e+03	-0.0251636	700.0
2547	7.02148e+02	2.54700e+03	-0.0251362	700.0
2548	7.02159e+02	2.54800e+03	-0.0251619	700.0
2549	7.02156e+02	2.54900e+03	-0.0251849	700.0
2550	7.02149e+02	2.55000e+03	-0.0252171	700.0
2551	7.02153e+02	2.55100e+03	-0.0252564	700.0
2552	7.02152e+02	2.55200e+03	-0.0253389	700.0
2553	7.02153e+02	2.55300e+03	-0.0253972	700.0
2554	7.02150e+02	2.55400e+03	-0.0254463	700.0
2555	7.02150e+02	2.55500e+03	-0.0254894	700.0
2556	7.02154e+02	2.55600e+03	-0.0254988	700.0
2557	7.02143e+02	2.55700e+03	-0.0254993	700.0
2558	7.02147e+02	2.55800e+03	-0.0254872	700.0
2559	7.02150e+02	2.55900e+03	-0.025465	700.0
2560	7.02153e+02	2.56000e+03	-0.0253888	700.0
2561	7.02148e+02	2.56100e+03	-0.0253402	700.0
2562	7.02143e+02	2.56200e+03	-0.0252989	700.0
2563	7.02158e+02	2.56300e+03	-0.0252603	700.0
2564	7.02149e+02	2.56400e+03	-0.0252332	700.0
2565	7.02146e+02	2.56500e+03	-0.0252147	700.0
2566	7.02144e+02	2.56600e+03	-0.0252047	700.0
2567	7.02149e+02	2.56700e+03	-0.0252001	700.0
2568	7.02159e+02	2.56800e+03	-0.0252292	700.0
2569	7.02160e+02	2.56900e+03	-0.0252463	700.0
2570	7.02141e+02	2.57000e+03	-0.0252634	700.0
2571	7.02148e+02	2.57100e+03	-0.0252819	700.0
2572	7.02152e+02	2.57200e+03	-0.0253087	700.0
2573	7.02150e+02	2.57300e+03	-0.0253307	700.0
2574	7.02146e+02	2.57400e+03	-0.0253516	700.0
2575	7.02152e+02	2.57500e+03	-0.0253723	700.0
2576	7.02143e+02	2.57600e+03	-0.0253905	700.0
2577	7.02151e+02	2.57700e+03	-0.0254089	700.0
2578	7.02154e+02	2.57800e+03	-0.0254255	700.0
2579	7.02151e+02	2.57900e+03	-0.0254391	700.0
2580	7.02148e+02	2.58000e+03	-0.0254413	700.0
2581	7.02147e+02	2.58100e+03	-0.0254428	700.0
2582	7.02145e+02	2.58200e+03	-0.0254428	700.0
2583	7.02144e+02	2.58300e+03	-0.0254418	700.0
2584	7.02145e+02	2.58400e+03	-0.0254267	700.0
2585	7.02146e+02	2.58500e+03	-0.0254184	700.0
2586	7.02143e+02	2.58600e+03	-0.025411	700.0
2587	7.02138e+02	2.58700e+03	-0.0254032	700.0
2588	7.02147e+02	2.58800e+03	-0.0253951	700.0
2589	7.02143e+02	2.58900e+03	-0.0253865	700.0
2590	7.02132e+02	2.59000e+03	-0.0253784	700.0
2591	7.02141e+02	2.59100e+03	-0.0253709	700.0
2592	7.02148e+02	2.59200e+03	-0.0253652	700.0
2593	7.02150e+02	2.59300e+03	-0.0253619	700.0
2594	7.02152e+02	2.59400e+03	-0.0253607	700.0
2595	7.02140e+02	2.59500e+03	-0.0253607	700.0
2596	7.02147e+02	2.59600e+03	-0.0253687	700.0
2597	7.02145e+02	2.59700e+03	-0.0253742	700.0
2598	7.02140e+02	2.59800e+03	-0.0253801	700.0
2599	7.02135e+02	2.59900e+03	-0.0253869	700.0
2600	7.02140e+02	2.60000e+03	-0.0253973	700.0
2601	7.02147e+02	2.60100e+03	-0.0254066	700.0
2602	7.02147e+02	2.60200e+03	-0.0254156	700.0
2603	7.02145e+02	2.60300e+03	-0.0254243	700.0
2604	7.02151e+02	2.60400e+03	-0.0254325	700.0
2605	7.02141e+02	2.60500e+03	-0.0254391	700.0
2606	7.02154e+02	2.60600e+03	-0.0254441	700.0
2607	7.02141e+02	2.60700e+03	-0.0254481	700.0
2608	7.02143e+02	2.60800e+03	-0.0254451	700.0
2609	7.02144e+02	2.60900e+03	-0.0254417	700.0
2610	7.02140e+02	2.61000e+03	-0.0254361	700.0
2611	7.02150e+02	2.61100e+03	-0.0254285	700.0
2612	7.02143e+02	2.61200e+03	-0.0254113	700.0
2613	7.02150e+02	2.61300e+03	-0.0253971	700.0
2614	7.02147e+02	2.61400e+03	-0.0253841	700.0
2615	7.02144e+02	2.61500e+03	-0.0253719	700.0
2616	7.02148e+02	2.61600e+03	-0.0253637	700.0
2617	7.02147e+02	2.61700e+03	-0.0253619	700.0
2618	7.02144e+02	2.61800e+03	-0.0253655	700.0
2619	7.02142e+02	2.61900e+03	-0.0253726	700.0
2620	7.02143e+02	2.62000e+03	-0.0254016	700.0
2621	7.02138e+02	2.62100e+03	-0.0254252	700.0
2622	7.02140e+02	2.62200e+03	-0.0254502	700.0
2623	7.02150e+02	2.62300e+03	-0.0254768	700.0
2624	7.02138e+02	2.62400e+03	-0.0255112	700.0
2625	7.02138e+02	2.62500e+03	-0.0255351	700.0
2626	7.02140e+02	2.62600e+03	-0.0255516	700.0
2627	7.02139e+02	2.62700e+03	-0.0255646	700.0
2628	7.02139e+02	2.62800e+03	-0.0255616	700.0
2629	7.02146e+02	2.62900e+03	-0.02556	700.0
2630	7.02144e+02	2.63000e+03	-0.0255549	700.0
2631	7.02142e+02	2.63100e+03	-0.025547	700.0
2632	7.02145e+02	2.63200e+03	-0.0255173	700.0
2633	7.02137e+02	2.63300e+03	-0.0254891	700.0
2634	7.02124e+02	2.63400e+03	-0.0254575	700.0
2635	7.02136e+02	2.63500e+03	-0.0254245	700.0
2636	7.02134e+02	2.63600e+03	-0.0253813	700.0
2637	7.02127e+02	2.63700e+03	-0.0253481	700.0
2638	7.02137e+02	2.63800e+03	-0.0253199	700.0
2639	7.02135e+02	2.63900e+03	-0.0252946	700.0
2640	7.02135e+02	2.64000e+03	-0.0252859	700.0
2641	7.02137e+02	2.64100e+03	-0.0252776	700.0
2642	7.02139e+02	2.64200e+03	-0.0252736	700.0
2643	7.02132e+02	2.64300e+03	-0.025273	700.0
2644	7.02129e+02	2.64400e+03	-0.0252928	700.0
2645	7.02143e+02	2.64500e+03	-0.0253059	700.0
2646	7.02138e+02	2.64600e+03	-0.0253191	700.0
2647	7.02137e+02	2.64700e+03	-0.0253331	700.0
2648	7.02138e+02	2.64800e+03	-0.0253515	700.0
2649	7.02134e+02	2.64900e+03	-0.0253654	700.0
2650	7.02131e+02	2.65000e+03	-0.0253773	700.0
2651	7.02130e+02	2.65100e+03	-0.0253882	700.0
2652	7.02129e+02	2.65200e+03	-0.0253926	700.0
2653	7.02126e+02	2.65300e+03	-0.0253976	700.0
2654	7.02123e+02	2.65400e+03	-0.025401	700.0
2655	7.02128e+02	2.65500e+03	-0.025403	700.0
2656	7.02132e+02	2.65600e+03	-0.0253975	700.0
2657	7.02124e+02	2.65700e+03	-0.0253931	700.0
2658	7.02121e+02	2.65800e+03	-0.0253877	700.0
2659	7.02131e+02	2.65900e+03	-0.0253814	700.0
2660	7.02132e+02	2.66000e+03	-0.0253699	700.0
2661	7.02139e+02	2.66100e+03	-0.0253612	700.0
2662	7.02136e+02	2.66200e+03	-0.0253531	700.0
2663	7.02127e+02	2.66300e+03	-0.0253453	700.0
2664	7.02129e+02	2.66400e+03	-0.0253389	700.0
2665	7.02129e+02	2.66500e+03	-0.0253332	700.0
2666	7.02140e+02	2.66600e+03	-0.0253282	700.0
2667	7.02135e+02	2.66700e+03	-0.0253238	700.0
2668	7.02132e+02	2.66800e+03	-0.0253226	700.0
2669	7.02122e+02	2.66900e+03	-0.0253205	700.0
2670	7.02126e+02	2.67000e+03	-0.0253179	700.0
2671	7.02129e+02	2.67100e+03	-0.0253142	700.0
2672	7.02130e+02	2.67200e+03	-0.0253054	700.0
2673	7.02130e+02	2.67300e+03	-0.0252956	700.0
2674	7.02124e+02	2.67400e+03	-0.0252865	700.0
2675	7.02134e+02	2.67500e+03	-0.0252782	700.0
2676	7.02131e+02	2.67600e+03	-0.0252665	700.0
2677	7.02130e+02	2.67700e+03	-0.0252601	700.0
2678	7.02127e+02	2.67800e+03	-0.0252557	700.0
2679	7.02131e+02	2.67900e+03	-0.0252522	700.0
2680	7.02125e+02	2.68000e+03	-0.0252557	700.0
2681	7.02133e+02	2.68100e+03	-0.0252551	700.0
2682	7.02130e+02	2.68200e+03	-0.0252543	700.0
2683	7.02134e+02	2.68300e+03	-0.0252539	700.0
2684	7.02127e+02	2.68400e+03	-0.025254	700.0
2685	7.02133e+02	2.68500e+03	-0.0252557	700.0
2686	7.02130e+02	2.68600e+03	-0.025258	700.0
2687	7.02128e+02	2.68700e+03	-0.0252604	700.0
2688	7.02124e+02	2.68800e+03	-0.0252653	700.0
2689	7.02127e+02	2.68900e+03	-0.0252682	700.0
2690	7.02125e+02	2.69000e+03	-0.025271	700.0
2691	7.02122e+02	2.69100e+03	-0.0252741	700.0
2692	7.02124e+02	2.69200e+03	-0.0252774	700.0
2693	7.02129e+02	2.69300e+03	-0.0252827	700.0
2694	7.02118e+02	2.69400e+03	-0.025289	700.0
2695	7.02128e+02	2.69500e+03	-0.0252959	700.0
2696	7.02123e+02	2.69600e+03	-0.0253062	700.0
2697	7.02130e+02	2.69700e+03	-0.0253135	700.0
2698	7.02126e+02	2.69800e+03	-0.0253188	700.0
2699	7.02125e+02	2.69900e+03	-0.0253227	700.0
2700	7.02126e+02	2.70000e+03	-0.0253194	700.0
2701	7.02121e+02	2.70100e+03	-0.025315	700.0
2702	7.02121e+02	2.70200e+03	-0.0253092	700.0
2703	7.02123e+02	2.70300e+03	-0.0253025	700.0
2704	7.02123e+02	2.70400e+03	-0.0252898	700.0
2705	7.02119e+02	2.70500e+03	-0.0252839	700.0
2706	7.02127e+02	2.70600e+03	-0.0252813	700.0
2707	7.02132e+02	2.70700e+03	-0.0252804	700.0
2708	7.02127e+02	2.70800e+03	-0.0252828	700.0
2709	7.02122e+02	2.70900e+03	-0.025281	700.0
2710	7.02123e+02	2.71000e+03	-0.02528	700.0
2711	7.02118e+02	2.71100e+03	-0.02528	700.0
2712	7.02125e+02	2.71200e+03	-0.0252808	700.0
2713	7.02124e+02	2.71300e+03	-0.0252817	700.0
2714	7.02131e+02	2.71400e+03	-0.0252814	700.0
2715	7.02122e+02	2.71500e+03	-0.025281	700.0
2716	7.02118e+02	2.71600e+03	-0.0252829	700.0
2717	7.02130e+02	2.71700e+03	-0.0252878	700.0
2718	7.02115e+02	2.71800e+03	-0.0252943	700.0
2719	7.02126e+02	2.71900e+03	-0.0252997	700.0
2720	7.02128e+02	2.72000e+03	-0.0253044	700.0
